	Long(deg) 	Lati(deg) 	H(m) 	LOS(mm/yr) 	Azi(deg) 	Inc(deg) 	Sig(mm/yr) 
100.9900 	23.6500 	0.000 	0.000 	-10.300 	33.800 	0.000
100.9900 	23.7300 	0.000 	0.000 	-10.300 	33.800 	0.000
100.9900 	23.8100 	0.000 	0.000 	-10.300 	33.800 	0.000
100.9900 	23.8900 	0.000 	0.000 	-10.300 	33.800 	0.000
100.9900 	23.9700 	0.000 	0.000 	-10.300 	33.800 	0.000
100.9900 	24.0500 	0.000 	0.000 	-10.300 	33.800 	0.000
100.9900 	24.1300 	0.000 	0.000 	-10.300 	33.800 	0.000
100.9900 	24.2100 	0.000 	0.000 	-10.300 	33.800 	0.000
100.9900 	24.2900 	0.000 	0.000 	-10.300 	33.800 	0.000
100.9900 	24.3700 	0.000 	0.000 	-10.300 	33.800 	0.000
100.9900 	24.4500 	0.000 	0.000 	-10.300 	33.800 	0.000
100.9900 	24.5300 	0.000 	0.000 	-10.300 	33.800 	0.000
100.9900 	24.6100 	0.000 	0.000 	-10.300 	33.800 	0.000
100.9900 	24.6900 	0.000 	0.000 	-10.300 	33.800 	0.000
100.9900 	24.7700 	0.000 	0.000 	-10.300 	33.800 	0.000
100.9900 	24.8500 	0.000 	0.000 	-10.300 	33.800 	0.000
100.9900 	24.9300 	0.000 	0.000 	-10.300 	33.800 	0.000
100.9900 	25.0100 	0.000 	0.000 	-10.300 	33.800 	0.000
100.9900 	25.0900 	0.000 	0.000 	-10.300 	33.800 	0.000
100.9900 	25.1700 	0.000 	0.000 	-10.300 	33.800 	0.000
100.9900 	25.2500 	0.000 	0.000 	-10.300 	33.800 	0.000
100.9900 	25.3300 	0.000 	0.000 	-10.300 	33.800 	0.000
100.9900 	25.4100 	0.000 	0.000 	-10.300 	33.800 	0.000
100.9900 	25.4900 	0.000 	0.000 	-10.300 	33.800 	0.000
100.9900 	25.5700 	0.000 	0.000 	-10.300 	33.800 	0.000
100.9900 	25.6500 	0.000 	0.000 	-10.300 	33.800 	0.000
100.9900 	25.7300 	0.000 	0.000 	-10.300 	33.800 	0.000
100.9900 	25.8100 	0.000 	0.000 	-10.300 	33.800 	0.000
100.9900 	25.8900 	0.000 	0.000 	-10.300 	33.800 	0.000
100.9900 	25.9700 	0.000 	0.000 	-10.300 	33.800 	0.000
100.9900 	26.0500 	0.000 	0.000 	-10.300 	33.800 	0.000
100.9900 	26.1300 	0.000 	0.000 	-10.300 	33.800 	0.000
100.9900 	26.2100 	0.000 	0.000 	-10.300 	33.800 	0.000
100.9900 	26.2900 	0.000 	0.000 	-10.300 	33.800 	0.000
100.9900 	26.3700 	0.000 	0.000 	-10.300 	33.800 	0.000
100.9900 	26.4500 	0.000 	0.000 	-10.300 	33.800 	0.000
100.9900 	26.5300 	0.000 	0.000 	-10.300 	33.800 	0.000
100.9900 	26.6100 	0.000 	0.000 	-10.300 	33.800 	0.000
100.9900 	26.6900 	0.000 	0.000 	-10.300 	33.800 	0.000
100.9900 	26.7700 	0.000 	0.000 	-10.300 	33.800 	0.000
100.9900 	26.8500 	0.000 	0.000 	-10.300 	33.800 	0.000
100.9900 	26.9300 	0.000 	0.000 	-10.300 	33.800 	0.000
100.9900 	27.0100 	0.000 	0.000 	-10.300 	33.800 	0.000
100.9900 	27.0900 	0.000 	0.000 	-10.300 	33.800 	0.000
100.9900 	27.1700 	0.000 	0.000 	-10.300 	33.800 	0.000
100.9900 	27.2500 	0.000 	0.000 	-10.300 	33.800 	0.000
100.9900 	27.3300 	0.000 	0.000 	-10.300 	33.800 	0.000
100.9900 	27.4100 	0.000 	0.000 	-10.300 	33.800 	0.000
100.9900 	27.4900 	0.000 	0.000 	-10.300 	33.800 	0.000
100.9900 	27.5700 	0.000 	0.000 	-10.300 	33.800 	0.000
100.9900 	27.6500 	0.000 	0.000 	-10.300 	33.800 	0.000
100.9900 	27.7300 	0.000 	0.000 	-10.300 	33.800 	0.000
100.9900 	27.8100 	0.000 	0.000 	-10.300 	33.800 	0.000
100.9900 	27.8900 	0.000 	0.000 	-10.300 	33.800 	0.000
100.9900 	27.9700 	0.000 	0.000 	-10.300 	33.800 	0.000
100.9900 	28.0500 	0.000 	0.000 	-10.300 	33.800 	0.000
100.9900 	28.1300 	0.000 	0.000 	-10.300 	33.800 	0.000
100.9900 	28.2100 	0.000 	0.000 	-10.300 	33.800 	0.000
100.9900 	28.2900 	0.000 	0.000 	-10.300 	33.800 	0.000
100.9900 	28.3700 	0.000 	0.000 	-10.300 	33.800 	0.000
100.9900 	28.4500 	0.000 	0.000 	-10.300 	33.800 	0.000
100.9900 	28.5300 	0.000 	0.000 	-10.300 	33.800 	0.000
100.9900 	28.6100 	0.000 	0.000 	-10.300 	33.800 	0.000
100.9900 	28.6900 	0.000 	0.000 	-10.300 	33.800 	0.000
100.9900 	28.7700 	0.000 	0.000 	-10.300 	33.800 	0.000
100.9900 	28.8500 	0.000 	0.000 	-10.300 	33.800 	0.000
100.9900 	28.9300 	0.000 	0.000 	-10.300 	33.800 	0.000
100.9900 	29.0100 	0.000 	0.000 	-10.300 	33.800 	0.000
100.9900 	29.0900 	0.000 	0.000 	-10.300 	33.800 	0.000
100.9900 	29.1700 	0.000 	0.000 	-10.300 	33.800 	0.000
101.0700 	23.6500 	0.000 	0.000 	-10.300 	33.800 	0.000
101.0700 	23.7300 	0.000 	0.000 	-10.300 	33.800 	0.000
101.0700 	23.8100 	0.000 	0.000 	-10.300 	33.800 	0.000
101.0700 	23.8900 	0.000 	0.000 	-10.300 	33.800 	0.000
101.0700 	23.9700 	0.000 	0.000 	-10.300 	33.800 	0.000
101.0700 	24.0500 	0.000 	0.000 	-10.300 	33.800 	0.000
101.0700 	24.1300 	0.000 	0.000 	-10.300 	33.800 	0.000
101.0700 	24.2100 	0.000 	0.000 	-10.300 	33.800 	0.000
101.0700 	24.2900 	0.000 	0.000 	-10.300 	33.800 	0.000
101.0700 	24.3700 	0.000 	0.000 	-10.300 	33.800 	0.000
101.0700 	24.4500 	0.000 	0.000 	-10.300 	33.800 	0.000
101.0700 	24.5300 	0.000 	0.000 	-10.300 	33.800 	0.000
101.0700 	24.6100 	0.000 	0.000 	-10.300 	33.800 	0.000
101.0700 	24.6900 	0.000 	0.000 	-10.300 	33.800 	0.000
101.0700 	24.7700 	0.000 	0.000 	-10.300 	33.800 	0.000
101.0700 	24.8500 	0.000 	0.000 	-10.300 	33.800 	0.000
101.0700 	24.9300 	0.000 	0.000 	-10.300 	33.800 	0.000
101.0700 	25.0100 	0.000 	0.000 	-10.300 	33.800 	0.000
101.0700 	25.0900 	0.000 	0.000 	-10.300 	33.800 	0.000
101.0700 	25.1700 	0.000 	0.000 	-10.300 	33.800 	0.000
101.0700 	25.2500 	0.000 	0.000 	-10.300 	33.800 	0.000
101.0700 	25.3300 	0.000 	0.000 	-10.300 	33.800 	0.000
101.0700 	25.4100 	0.000 	0.000 	-10.300 	33.800 	0.000
101.0700 	25.4900 	0.000 	0.000 	-10.300 	33.800 	0.000
101.0700 	25.5700 	0.000 	0.000 	-10.300 	33.800 	0.000
101.0700 	25.6500 	0.000 	0.000 	-10.300 	33.800 	0.000
101.0700 	25.7300 	0.000 	0.000 	-10.300 	33.800 	0.000
101.0700 	25.8100 	0.000 	0.000 	-10.300 	33.800 	0.000
101.0700 	25.8900 	0.000 	0.000 	-10.300 	33.800 	0.000
101.0700 	25.9700 	0.000 	0.000 	-10.300 	33.800 	0.000
101.0700 	26.0500 	0.000 	0.000 	-10.300 	33.800 	0.000
101.0700 	26.1300 	0.000 	0.000 	-10.300 	33.800 	0.000
101.0700 	26.2100 	0.000 	0.000 	-10.300 	33.800 	0.000
101.0700 	26.2900 	0.000 	0.000 	-10.300 	33.800 	0.000
101.0700 	26.3700 	0.000 	0.000 	-10.300 	33.800 	0.000
101.0700 	26.4500 	0.000 	0.000 	-10.300 	33.800 	0.000
101.0700 	26.5300 	0.000 	0.000 	-10.300 	33.800 	0.000
101.0700 	26.6100 	0.000 	0.000 	-10.300 	33.800 	0.000
101.0700 	26.6900 	0.000 	0.000 	-10.300 	33.800 	0.000
101.0700 	26.7700 	0.000 	0.000 	-10.300 	33.800 	0.000
101.0700 	26.8500 	0.000 	0.000 	-10.300 	33.800 	0.000
101.0700 	26.9300 	0.000 	0.000 	-10.300 	33.800 	0.000
101.0700 	27.0100 	0.000 	0.000 	-10.300 	33.800 	0.000
101.0700 	27.0900 	0.000 	0.000 	-10.300 	33.800 	0.000
101.0700 	27.1700 	0.000 	0.000 	-10.300 	33.800 	0.000
101.0700 	27.2500 	0.000 	0.000 	-10.300 	33.800 	0.000
101.0700 	27.3300 	0.000 	0.000 	-10.300 	33.800 	0.000
101.0700 	27.4100 	0.000 	0.000 	-10.300 	33.800 	0.000
101.0700 	27.4900 	0.000 	0.000 	-10.300 	33.800 	0.000
101.0700 	27.5700 	0.000 	0.000 	-10.300 	33.800 	0.000
101.0700 	27.6500 	0.000 	0.000 	-10.300 	33.800 	0.000
101.0700 	27.7300 	0.000 	0.000 	-10.300 	33.800 	0.000
101.0700 	27.8100 	0.000 	0.000 	-10.300 	33.800 	0.000
101.0700 	27.8900 	0.000 	0.000 	-10.300 	33.800 	0.000
101.0700 	27.9700 	0.000 	0.000 	-10.300 	33.800 	0.000
101.0700 	28.0500 	0.000 	0.000 	-10.300 	33.800 	0.000
101.0700 	28.1300 	0.000 	0.000 	-10.300 	33.800 	0.000
101.0700 	28.2100 	0.000 	0.000 	-10.300 	33.800 	0.000
101.0700 	28.2900 	0.000 	0.000 	-10.300 	33.800 	0.000
101.0700 	28.3700 	0.000 	0.000 	-10.300 	33.800 	0.000
101.0700 	28.4500 	0.000 	0.000 	-10.300 	33.800 	0.000
101.0700 	28.5300 	0.000 	0.000 	-10.300 	33.800 	0.000
101.0700 	28.6100 	0.000 	0.000 	-10.300 	33.800 	0.000
101.0700 	28.6900 	0.000 	0.000 	-10.300 	33.800 	0.000
101.0700 	28.7700 	0.000 	0.000 	-10.300 	33.800 	0.000
101.0700 	28.8500 	0.000 	0.000 	-10.300 	33.800 	0.000
101.0700 	28.9300 	0.000 	0.000 	-10.300 	33.800 	0.000
101.0700 	29.0100 	0.000 	0.000 	-10.300 	33.800 	0.000
101.0700 	29.0900 	0.000 	0.000 	-10.300 	33.800 	0.000
101.0700 	29.1700 	0.000 	0.000 	-10.300 	33.800 	0.000
101.1500 	23.6500 	0.000 	0.000 	-10.300 	33.800 	0.000
101.1500 	23.7300 	0.000 	0.000 	-10.300 	33.800 	0.000
101.1500 	23.8100 	0.000 	0.000 	-10.300 	33.800 	0.000
101.1500 	23.8900 	0.000 	0.000 	-10.300 	33.800 	0.000
101.1500 	23.9700 	0.000 	0.000 	-10.300 	33.800 	0.000
101.1500 	24.0500 	0.000 	0.000 	-10.300 	33.800 	0.000
101.1500 	24.1300 	0.000 	0.000 	-10.300 	33.800 	0.000
101.1500 	24.2100 	0.000 	0.000 	-10.300 	33.800 	0.000
101.1500 	24.2900 	0.000 	0.000 	-10.300 	33.800 	0.000
101.1500 	24.3700 	0.000 	0.000 	-10.300 	33.800 	0.000
101.1500 	24.4500 	0.000 	0.000 	-10.300 	33.800 	0.000
101.1500 	24.5300 	0.000 	0.000 	-10.300 	33.800 	0.000
101.1500 	24.6100 	0.000 	0.000 	-10.300 	33.800 	0.000
101.1500 	24.6900 	0.000 	0.000 	-10.300 	33.800 	0.000
101.1500 	24.7700 	0.000 	0.000 	-10.300 	33.800 	0.000
101.1500 	24.8500 	0.000 	0.000 	-10.300 	33.800 	0.000
101.1500 	24.9300 	0.000 	0.000 	-10.300 	33.800 	0.000
101.1500 	25.0100 	0.000 	0.000 	-10.300 	33.800 	0.000
101.1500 	25.0900 	0.000 	0.000 	-10.300 	33.800 	0.000
101.1500 	25.1700 	0.000 	0.000 	-10.300 	33.800 	0.000
101.1500 	25.2500 	0.000 	0.000 	-10.300 	33.800 	0.000
101.1500 	25.3300 	0.000 	0.000 	-10.300 	33.800 	0.000
101.1500 	25.4100 	0.000 	0.000 	-10.300 	33.800 	0.000
101.1500 	25.4900 	0.000 	0.000 	-10.300 	33.800 	0.000
101.1500 	25.5700 	0.000 	0.000 	-10.300 	33.800 	0.000
101.1500 	25.6500 	0.000 	0.000 	-10.300 	33.800 	0.000
101.1500 	25.7300 	0.000 	0.000 	-10.300 	33.800 	0.000
101.1500 	25.8100 	0.000 	0.000 	-10.300 	33.800 	0.000
101.1500 	25.8900 	0.000 	0.000 	-10.300 	33.800 	0.000
101.1500 	25.9700 	0.000 	0.000 	-10.300 	33.800 	0.000
101.1500 	26.0500 	0.000 	0.000 	-10.300 	33.800 	0.000
101.1500 	26.1300 	0.000 	0.000 	-10.300 	33.800 	0.000
101.1500 	26.2100 	0.000 	0.000 	-10.300 	33.800 	0.000
101.1500 	26.2900 	0.000 	0.000 	-10.300 	33.800 	0.000
101.1500 	26.3700 	0.000 	0.000 	-10.300 	33.800 	0.000
101.1500 	26.4500 	0.000 	0.000 	-10.300 	33.800 	0.000
101.1500 	26.5300 	0.000 	0.000 	-10.300 	33.800 	0.000
101.1500 	26.6100 	0.000 	0.000 	-10.300 	33.800 	0.000
101.1500 	26.6900 	0.000 	0.000 	-10.300 	33.800 	0.000
101.1500 	26.7700 	0.000 	0.000 	-10.300 	33.800 	0.000
101.1500 	26.8500 	0.000 	0.000 	-10.300 	33.800 	0.000
101.1500 	26.9300 	0.000 	0.000 	-10.300 	33.800 	0.000
101.1500 	27.0100 	0.000 	0.000 	-10.300 	33.800 	0.000
101.1500 	27.0900 	0.000 	0.000 	-10.300 	33.800 	0.000
101.1500 	27.1700 	0.000 	0.000 	-10.300 	33.800 	0.000
101.1500 	27.2500 	0.000 	0.000 	-10.300 	33.800 	0.000
101.1500 	27.3300 	0.000 	0.000 	-10.300 	33.800 	0.000
101.1500 	27.4100 	0.000 	0.000 	-10.300 	33.800 	0.000
101.1500 	27.4900 	0.000 	0.000 	-10.300 	33.800 	0.000
101.1500 	27.5700 	0.000 	0.000 	-10.300 	33.800 	0.000
101.1500 	27.6500 	0.000 	0.000 	-10.300 	33.800 	0.000
101.1500 	27.7300 	0.000 	0.000 	-10.300 	33.800 	0.000
101.1500 	27.8100 	0.000 	0.000 	-10.300 	33.800 	0.000
101.1500 	27.8900 	0.000 	0.000 	-10.300 	33.800 	0.000
101.1500 	27.9700 	0.000 	0.000 	-10.300 	33.800 	0.000
101.1500 	28.0500 	0.000 	0.000 	-10.300 	33.800 	0.000
101.1500 	28.1300 	0.000 	0.000 	-10.300 	33.800 	0.000
101.1500 	28.2100 	0.000 	0.000 	-10.300 	33.800 	0.000
101.1500 	28.2900 	0.000 	0.000 	-10.300 	33.800 	0.000
101.1500 	28.3700 	0.000 	0.000 	-10.300 	33.800 	0.000
101.1500 	28.4500 	0.000 	0.000 	-10.300 	33.800 	0.000
101.1500 	28.5300 	0.000 	0.000 	-10.300 	33.800 	0.000
101.1500 	28.6100 	0.000 	0.000 	-10.300 	33.800 	0.000
101.1500 	28.6900 	0.000 	0.000 	-10.300 	33.800 	0.000
101.1500 	28.7700 	0.000 	0.000 	-10.300 	33.800 	0.000
101.1500 	28.8500 	0.000 	0.000 	-10.300 	33.800 	0.000
101.1500 	28.9300 	0.000 	0.000 	-10.300 	33.800 	0.000
101.1500 	29.0100 	0.000 	0.000 	-10.300 	33.800 	0.000
101.1500 	29.0900 	0.000 	0.000 	-10.300 	33.800 	0.000
101.1500 	29.1700 	0.000 	0.000 	-10.300 	33.800 	0.000
101.2300 	23.6500 	0.000 	0.000 	-10.300 	33.800 	0.000
101.2300 	23.7300 	0.000 	0.000 	-10.300 	33.800 	0.000
101.2300 	23.8100 	0.000 	0.000 	-10.300 	33.800 	0.000
101.2300 	23.8900 	0.000 	0.000 	-10.300 	33.800 	0.000
101.2300 	23.9700 	0.000 	0.000 	-10.300 	33.800 	0.000
101.2300 	24.0500 	0.000 	0.000 	-10.300 	33.800 	0.000
101.2300 	24.1300 	0.000 	0.000 	-10.300 	33.800 	0.000
101.2300 	24.2100 	0.000 	0.000 	-10.300 	33.800 	0.000
101.2300 	24.2900 	0.000 	0.000 	-10.300 	33.800 	0.000
101.2300 	24.3700 	0.000 	0.000 	-10.300 	33.800 	0.000
101.2300 	24.4500 	0.000 	0.000 	-10.300 	33.800 	0.000
101.2300 	24.5300 	0.000 	0.000 	-10.300 	33.800 	0.000
101.2300 	24.6100 	0.000 	0.000 	-10.300 	33.800 	0.000
101.2300 	24.6900 	0.000 	0.000 	-10.300 	33.800 	0.000
101.2300 	24.7700 	0.000 	0.000 	-10.300 	33.800 	0.000
101.2300 	24.8500 	0.000 	0.000 	-10.300 	33.800 	0.000
101.2300 	24.9300 	0.000 	0.000 	-10.300 	33.800 	0.000
101.2300 	25.0100 	0.000 	0.000 	-10.300 	33.800 	0.000
101.2300 	25.0900 	0.000 	0.000 	-10.300 	33.800 	0.000
101.2300 	25.1700 	0.000 	0.000 	-10.300 	33.800 	0.000
101.2300 	25.2500 	0.000 	0.000 	-10.300 	33.800 	0.000
101.2300 	25.3300 	0.000 	0.000 	-10.300 	33.800 	0.000
101.2300 	25.4100 	0.000 	0.000 	-10.300 	33.800 	0.000
101.2300 	25.4900 	0.000 	0.000 	-10.300 	33.800 	0.000
101.2300 	25.5700 	0.000 	0.000 	-10.300 	33.800 	0.000
101.2300 	25.6500 	0.000 	0.000 	-10.300 	33.800 	0.000
101.2300 	25.7300 	0.000 	0.000 	-10.300 	33.800 	0.000
101.2300 	25.8100 	0.000 	0.000 	-10.300 	33.800 	0.000
101.2300 	25.8900 	0.000 	0.000 	-10.300 	33.800 	0.000
101.2300 	25.9700 	0.000 	0.000 	-10.300 	33.800 	0.000
101.2300 	26.0500 	0.000 	0.000 	-10.300 	33.800 	0.000
101.2300 	26.1300 	0.000 	0.000 	-10.300 	33.800 	0.000
101.2300 	26.2100 	0.000 	0.000 	-10.300 	33.800 	0.000
101.2300 	26.2900 	0.000 	0.000 	-10.300 	33.800 	0.000
101.2300 	26.3700 	0.000 	0.000 	-10.300 	33.800 	0.000
101.2300 	26.4500 	0.000 	0.000 	-10.300 	33.800 	0.000
101.2300 	26.5300 	0.000 	0.000 	-10.300 	33.800 	0.000
101.2300 	26.6100 	0.000 	0.000 	-10.300 	33.800 	0.000
101.2300 	26.6900 	0.000 	0.000 	-10.300 	33.800 	0.000
101.2300 	26.7700 	0.000 	0.000 	-10.300 	33.800 	0.000
101.2300 	26.8500 	0.000 	0.000 	-10.300 	33.800 	0.000
101.2300 	26.9300 	0.000 	0.000 	-10.300 	33.800 	0.000
101.2300 	27.0100 	0.000 	0.000 	-10.300 	33.800 	0.000
101.2300 	27.0900 	0.000 	0.000 	-10.300 	33.800 	0.000
101.2300 	27.1700 	0.000 	0.000 	-10.300 	33.800 	0.000
101.2300 	27.2500 	0.000 	0.000 	-10.300 	33.800 	0.000
101.2300 	27.3300 	0.000 	0.000 	-10.300 	33.800 	0.000
101.2300 	27.4100 	0.000 	0.000 	-10.300 	33.800 	0.000
101.2300 	27.4900 	0.000 	0.000 	-10.300 	33.800 	0.000
101.2300 	27.5700 	0.000 	0.000 	-10.300 	33.800 	0.000
101.2300 	27.6500 	0.000 	0.000 	-10.300 	33.800 	0.000
101.2300 	27.7300 	0.000 	0.000 	-10.300 	33.800 	0.000
101.2300 	27.8100 	0.000 	0.000 	-10.300 	33.800 	0.000
101.2300 	27.8900 	0.000 	0.000 	-10.300 	33.800 	0.000
101.2300 	27.9700 	0.000 	0.000 	-10.300 	33.800 	0.000
101.2300 	28.0500 	0.000 	0.000 	-10.300 	33.800 	0.000
101.2300 	28.1300 	0.000 	0.000 	-10.300 	33.800 	0.000
101.2300 	28.2100 	0.000 	0.000 	-10.300 	33.800 	0.000
101.2300 	28.2900 	0.000 	0.000 	-10.300 	33.800 	0.000
101.2300 	28.3700 	0.000 	0.000 	-10.300 	33.800 	0.000
101.2300 	28.4500 	0.000 	0.000 	-10.300 	33.800 	0.000
101.2300 	28.5300 	0.000 	0.000 	-10.300 	33.800 	0.000
101.2300 	28.6100 	0.000 	0.000 	-10.300 	33.800 	0.000
101.2300 	28.6900 	0.000 	0.000 	-10.300 	33.800 	0.000
101.2300 	28.7700 	0.000 	0.000 	-10.300 	33.800 	0.000
101.2300 	28.8500 	0.000 	0.000 	-10.300 	33.800 	0.000
101.2300 	28.9300 	0.000 	0.000 	-10.300 	33.800 	0.000
101.2300 	29.0100 	0.000 	0.000 	-10.300 	33.800 	0.000
101.2300 	29.0900 	0.000 	0.000 	-10.300 	33.800 	0.000
101.2300 	29.1700 	0.000 	0.000 	-10.300 	33.800 	0.000
101.3100 	23.6500 	0.000 	0.000 	-10.300 	33.800 	0.000
101.3100 	23.7300 	0.000 	0.000 	-10.300 	33.800 	0.000
101.3100 	23.8100 	0.000 	0.000 	-10.300 	33.800 	0.000
101.3100 	23.8900 	0.000 	0.000 	-10.300 	33.800 	0.000
101.3100 	23.9700 	0.000 	0.000 	-10.300 	33.800 	0.000
101.3100 	24.0500 	0.000 	0.000 	-10.300 	33.800 	0.000
101.3100 	24.1300 	0.000 	0.000 	-10.300 	33.800 	0.000
101.3100 	24.2100 	0.000 	0.000 	-10.300 	33.800 	0.000
101.3100 	24.2900 	0.000 	0.000 	-10.300 	33.800 	0.000
101.3100 	24.3700 	0.000 	0.000 	-10.300 	33.800 	0.000
101.3100 	24.4500 	0.000 	0.000 	-10.300 	33.800 	0.000
101.3100 	24.5300 	0.000 	0.000 	-10.300 	33.800 	0.000
101.3100 	24.6100 	0.000 	0.000 	-10.300 	33.800 	0.000
101.3100 	24.6900 	0.000 	0.000 	-10.300 	33.800 	0.000
101.3100 	24.7700 	0.000 	0.000 	-10.300 	33.800 	0.000
101.3100 	24.8500 	0.000 	0.000 	-10.300 	33.800 	0.000
101.3100 	24.9300 	0.000 	0.000 	-10.300 	33.800 	0.000
101.3100 	25.0100 	0.000 	0.000 	-10.300 	33.800 	0.000
101.3100 	25.0900 	0.000 	0.000 	-10.300 	33.800 	0.000
101.3100 	25.1700 	0.000 	0.000 	-10.300 	33.800 	0.000
101.3100 	25.2500 	0.000 	0.000 	-10.300 	33.800 	0.000
101.3100 	25.3300 	0.000 	0.000 	-10.300 	33.800 	0.000
101.3100 	25.4100 	0.000 	0.000 	-10.300 	33.800 	0.000
101.3100 	25.4900 	0.000 	0.000 	-10.300 	33.800 	0.000
101.3100 	25.5700 	0.000 	0.000 	-10.300 	33.800 	0.000
101.3100 	25.6500 	0.000 	0.000 	-10.300 	33.800 	0.000
101.3100 	25.7300 	0.000 	0.000 	-10.300 	33.800 	0.000
101.3100 	25.8100 	0.000 	0.000 	-10.300 	33.800 	0.000
101.3100 	25.8900 	0.000 	0.000 	-10.300 	33.800 	0.000
101.3100 	25.9700 	0.000 	0.000 	-10.300 	33.800 	0.000
101.3100 	26.0500 	0.000 	0.000 	-10.300 	33.800 	0.000
101.3100 	26.1300 	0.000 	0.000 	-10.300 	33.800 	0.000
101.3100 	26.2100 	0.000 	0.000 	-10.300 	33.800 	0.000
101.3100 	26.2900 	0.000 	0.000 	-10.300 	33.800 	0.000
101.3100 	26.3700 	0.000 	0.000 	-10.300 	33.800 	0.000
101.3100 	26.4500 	0.000 	0.000 	-10.300 	33.800 	0.000
101.3100 	26.5300 	0.000 	0.000 	-10.300 	33.800 	0.000
101.3100 	26.6100 	0.000 	0.000 	-10.300 	33.800 	0.000
101.3100 	26.6900 	0.000 	0.000 	-10.300 	33.800 	0.000
101.3100 	26.7700 	0.000 	0.000 	-10.300 	33.800 	0.000
101.3100 	26.8500 	0.000 	0.000 	-10.300 	33.800 	0.000
101.3100 	26.9300 	0.000 	0.000 	-10.300 	33.800 	0.000
101.3100 	27.0100 	0.000 	0.000 	-10.300 	33.800 	0.000
101.3100 	27.0900 	0.000 	0.000 	-10.300 	33.800 	0.000
101.3100 	27.1700 	0.000 	0.000 	-10.300 	33.800 	0.000
101.3100 	27.2500 	0.000 	0.000 	-10.300 	33.800 	0.000
101.3100 	27.3300 	0.000 	0.000 	-10.300 	33.800 	0.000
101.3100 	27.4100 	0.000 	0.000 	-10.300 	33.800 	0.000
101.3100 	27.4900 	0.000 	0.000 	-10.300 	33.800 	0.000
101.3100 	27.5700 	0.000 	0.000 	-10.300 	33.800 	0.000
101.3100 	27.6500 	0.000 	0.000 	-10.300 	33.800 	0.000
101.3100 	27.7300 	0.000 	0.000 	-10.300 	33.800 	0.000
101.3100 	27.8100 	0.000 	0.000 	-10.300 	33.800 	0.000
101.3100 	27.8900 	0.000 	0.000 	-10.300 	33.800 	0.000
101.3100 	27.9700 	0.000 	0.000 	-10.300 	33.800 	0.000
101.3100 	28.0500 	0.000 	0.000 	-10.300 	33.800 	0.000
101.3100 	28.1300 	0.000 	0.000 	-10.300 	33.800 	0.000
101.3100 	28.2100 	0.000 	0.000 	-10.300 	33.800 	0.000
101.3100 	28.2900 	0.000 	0.000 	-10.300 	33.800 	0.000
101.3100 	28.3700 	0.000 	0.000 	-10.300 	33.800 	0.000
101.3100 	28.4500 	0.000 	0.000 	-10.300 	33.800 	0.000
101.3100 	28.5300 	0.000 	0.000 	-10.300 	33.800 	0.000
101.3100 	28.6100 	0.000 	0.000 	-10.300 	33.800 	0.000
101.3100 	28.6900 	0.000 	0.000 	-10.300 	33.800 	0.000
101.3100 	28.7700 	0.000 	0.000 	-10.300 	33.800 	0.000
101.3100 	28.8500 	0.000 	0.000 	-10.300 	33.800 	0.000
101.3100 	28.9300 	0.000 	0.000 	-10.300 	33.800 	0.000
101.3100 	29.0100 	0.000 	0.000 	-10.300 	33.800 	0.000
101.3100 	29.0900 	0.000 	0.000 	-10.300 	33.800 	0.000
101.3100 	29.1700 	0.000 	0.000 	-10.300 	33.800 	0.000
101.3900 	23.6500 	0.000 	0.000 	-10.300 	33.800 	0.000
101.3900 	23.7300 	0.000 	0.000 	-10.300 	33.800 	0.000
101.3900 	23.8100 	0.000 	0.000 	-10.300 	33.800 	0.000
101.3900 	23.8900 	0.000 	0.000 	-10.300 	33.800 	0.000
101.3900 	23.9700 	0.000 	0.000 	-10.300 	33.800 	0.000
101.3900 	24.0500 	0.000 	0.000 	-10.300 	33.800 	0.000
101.3900 	24.1300 	0.000 	0.000 	-10.300 	33.800 	0.000
101.3900 	24.2100 	0.000 	0.000 	-10.300 	33.800 	0.000
101.3900 	24.2900 	0.000 	0.000 	-10.300 	33.800 	0.000
101.3900 	24.3700 	0.000 	0.000 	-10.300 	33.800 	0.000
101.3900 	24.4500 	0.000 	0.000 	-10.300 	33.800 	0.000
101.3900 	24.5300 	0.000 	0.000 	-10.300 	33.800 	0.000
101.3900 	24.6100 	0.000 	0.000 	-10.300 	33.800 	0.000
101.3900 	24.6900 	0.000 	0.000 	-10.300 	33.800 	0.000
101.3900 	24.7700 	0.000 	0.000 	-10.300 	33.800 	0.000
101.3900 	24.8500 	0.000 	0.000 	-10.300 	33.800 	0.000
101.3900 	24.9300 	0.000 	0.000 	-10.300 	33.800 	0.000
101.3900 	25.0100 	0.000 	0.000 	-10.300 	33.800 	0.000
101.3900 	25.0900 	0.000 	0.000 	-10.300 	33.800 	0.000
101.3900 	25.1700 	0.000 	0.000 	-10.300 	33.800 	0.000
101.3900 	25.2500 	0.000 	0.000 	-10.300 	33.800 	0.000
101.3900 	25.3300 	0.000 	0.000 	-10.300 	33.800 	0.000
101.3900 	25.4100 	0.000 	0.000 	-10.300 	33.800 	0.000
101.3900 	25.4900 	0.000 	0.000 	-10.300 	33.800 	0.000
101.3900 	25.5700 	0.000 	0.000 	-10.300 	33.800 	0.000
101.3900 	25.6500 	0.000 	0.000 	-10.300 	33.800 	0.000
101.3900 	25.7300 	0.000 	0.000 	-10.300 	33.800 	0.000
101.3900 	25.8100 	0.000 	0.000 	-10.300 	33.800 	0.000
101.3900 	25.8900 	0.000 	0.000 	-10.300 	33.800 	0.000
101.3900 	25.9700 	0.000 	0.000 	-10.300 	33.800 	0.000
101.3900 	26.0500 	0.000 	0.000 	-10.300 	33.800 	0.000
101.3900 	26.1300 	0.000 	0.000 	-10.300 	33.800 	0.000
101.3900 	26.2100 	0.000 	0.000 	-10.300 	33.800 	0.000
101.3900 	26.2900 	0.000 	0.000 	-10.300 	33.800 	0.000
101.3900 	26.3700 	0.000 	0.000 	-10.300 	33.800 	0.000
101.3900 	26.4500 	0.000 	0.000 	-10.300 	33.800 	0.000
101.3900 	26.5300 	0.000 	0.000 	-10.300 	33.800 	0.000
101.3900 	26.6100 	0.000 	0.000 	-10.300 	33.800 	0.000
101.3900 	26.6900 	0.000 	0.000 	-10.300 	33.800 	0.000
101.3900 	26.7700 	0.000 	0.000 	-10.300 	33.800 	0.000
101.3900 	26.8500 	0.000 	0.000 	-10.300 	33.800 	0.000
101.3900 	26.9300 	0.000 	0.000 	-10.300 	33.800 	0.000
101.3900 	27.0100 	0.000 	0.000 	-10.300 	33.800 	0.000
101.3900 	27.0900 	0.000 	0.000 	-10.300 	33.800 	0.000
101.3900 	27.1700 	0.000 	0.000 	-10.300 	33.800 	0.000
101.3900 	27.2500 	0.000 	0.000 	-10.300 	33.800 	0.000
101.3900 	27.3300 	0.000 	0.000 	-10.300 	33.800 	0.000
101.3900 	27.4100 	0.000 	0.000 	-10.300 	33.800 	0.000
101.3900 	27.4900 	0.000 	0.000 	-10.300 	33.800 	0.000
101.3900 	27.5700 	0.000 	0.000 	-10.300 	33.800 	0.000
101.3900 	27.6500 	0.000 	0.000 	-10.300 	33.800 	0.000
101.3900 	27.7300 	0.000 	0.000 	-10.300 	33.800 	0.000
101.3900 	27.8100 	0.000 	0.000 	-10.300 	33.800 	0.000
101.3900 	27.8900 	0.000 	0.000 	-10.300 	33.800 	0.000
101.3900 	27.9700 	0.000 	0.000 	-10.300 	33.800 	0.000
101.3900 	28.0500 	0.000 	0.000 	-10.300 	33.800 	0.000
101.3900 	28.1300 	0.000 	0.000 	-10.300 	33.800 	0.000
101.3900 	28.2100 	0.000 	0.000 	-10.300 	33.800 	0.000
101.3900 	28.2900 	0.000 	0.000 	-10.300 	33.800 	0.000
101.3900 	28.3700 	0.000 	0.000 	-10.300 	33.800 	0.000
101.3900 	28.4500 	0.000 	0.000 	-10.300 	33.800 	0.000
101.3900 	28.5300 	0.000 	0.000 	-10.300 	33.800 	0.000
101.3900 	28.6100 	0.000 	0.000 	-10.300 	33.800 	0.000
101.3900 	28.6900 	0.000 	0.000 	-10.300 	33.800 	0.000
101.3900 	28.7700 	0.000 	0.000 	-10.300 	33.800 	0.000
101.3900 	28.8500 	0.000 	0.000 	-10.300 	33.800 	0.000
101.3900 	28.9300 	0.000 	0.000 	-10.300 	33.800 	0.000
101.3900 	29.0100 	0.000 	0.000 	-10.300 	33.800 	0.000
101.3900 	29.0900 	0.000 	0.000 	-10.300 	33.800 	0.000
101.3900 	29.1700 	0.000 	0.000 	-10.300 	33.800 	0.000
101.4700 	23.6500 	0.000 	0.000 	-10.300 	33.800 	0.000
101.4700 	23.7300 	0.000 	0.000 	-10.300 	33.800 	0.000
101.4700 	23.8100 	0.000 	0.000 	-10.300 	33.800 	0.000
101.4700 	23.8900 	0.000 	0.000 	-10.300 	33.800 	0.000
101.4700 	23.9700 	0.000 	0.000 	-10.300 	33.800 	0.000
101.4700 	24.0500 	0.000 	0.000 	-10.300 	33.800 	0.000
101.4700 	24.1300 	0.000 	0.000 	-10.300 	33.800 	0.000
101.4700 	24.2100 	0.000 	0.000 	-10.300 	33.800 	0.000
101.4700 	24.2900 	0.000 	0.000 	-10.300 	33.800 	0.000
101.4700 	24.3700 	0.000 	0.000 	-10.300 	33.800 	0.000
101.4700 	24.4500 	0.000 	0.000 	-10.300 	33.800 	0.000
101.4700 	24.5300 	0.000 	0.000 	-10.300 	33.800 	0.000
101.4700 	24.6100 	0.000 	0.000 	-10.300 	33.800 	0.000
101.4700 	24.6900 	0.000 	0.000 	-10.300 	33.800 	0.000
101.4700 	24.7700 	0.000 	0.000 	-10.300 	33.800 	0.000
101.4700 	24.8500 	0.000 	0.000 	-10.300 	33.800 	0.000
101.4700 	24.9300 	0.000 	0.000 	-10.300 	33.800 	0.000
101.4700 	25.0100 	0.000 	0.000 	-10.300 	33.800 	0.000
101.4700 	25.0900 	0.000 	0.000 	-10.300 	33.800 	0.000
101.4700 	25.1700 	0.000 	0.000 	-10.300 	33.800 	0.000
101.4700 	25.2500 	0.000 	0.000 	-10.300 	33.800 	0.000
101.4700 	25.3300 	0.000 	0.000 	-10.300 	33.800 	0.000
101.4700 	25.4100 	0.000 	0.000 	-10.300 	33.800 	0.000
101.4700 	25.4900 	0.000 	0.000 	-10.300 	33.800 	0.000
101.4700 	25.5700 	0.000 	0.000 	-10.300 	33.800 	0.000
101.4700 	25.6500 	0.000 	0.000 	-10.300 	33.800 	0.000
101.4700 	25.7300 	0.000 	0.000 	-10.300 	33.800 	0.000
101.4700 	25.8100 	0.000 	0.000 	-10.300 	33.800 	0.000
101.4700 	25.8900 	0.000 	0.000 	-10.300 	33.800 	0.000
101.4700 	25.9700 	0.000 	0.000 	-10.300 	33.800 	0.000
101.4700 	26.0500 	0.000 	0.000 	-10.300 	33.800 	0.000
101.4700 	26.1300 	0.000 	0.000 	-10.300 	33.800 	0.000
101.4700 	26.2100 	0.000 	0.000 	-10.300 	33.800 	0.000
101.4700 	26.2900 	0.000 	0.000 	-10.300 	33.800 	0.000
101.4700 	26.3700 	0.000 	0.000 	-10.300 	33.800 	0.000
101.4700 	26.4500 	0.000 	0.000 	-10.300 	33.800 	0.000
101.4700 	26.5300 	0.000 	0.000 	-10.300 	33.800 	0.000
101.4700 	26.6100 	0.000 	0.000 	-10.300 	33.800 	0.000
101.4700 	26.6900 	0.000 	0.000 	-10.300 	33.800 	0.000
101.4700 	26.7700 	0.000 	0.000 	-10.300 	33.800 	0.000
101.4700 	26.8500 	0.000 	0.000 	-10.300 	33.800 	0.000
101.4700 	26.9300 	0.000 	0.000 	-10.300 	33.800 	0.000
101.4700 	27.0100 	0.000 	0.000 	-10.300 	33.800 	0.000
101.4700 	27.0900 	0.000 	0.000 	-10.300 	33.800 	0.000
101.4700 	27.1700 	0.000 	0.000 	-10.300 	33.800 	0.000
101.4700 	27.2500 	0.000 	0.000 	-10.300 	33.800 	0.000
101.4700 	27.3300 	0.000 	0.000 	-10.300 	33.800 	0.000
101.4700 	27.4100 	0.000 	0.000 	-10.300 	33.800 	0.000
101.4700 	27.4900 	0.000 	0.000 	-10.300 	33.800 	0.000
101.4700 	27.5700 	0.000 	0.000 	-10.300 	33.800 	0.000
101.4700 	27.6500 	0.000 	0.000 	-10.300 	33.800 	0.000
101.4700 	27.7300 	0.000 	0.000 	-10.300 	33.800 	0.000
101.4700 	27.8100 	0.000 	0.000 	-10.300 	33.800 	0.000
101.4700 	27.8900 	0.000 	0.000 	-10.300 	33.800 	0.000
101.4700 	27.9700 	0.000 	0.000 	-10.300 	33.800 	0.000
101.4700 	28.0500 	0.000 	0.000 	-10.300 	33.800 	0.000
101.4700 	28.1300 	0.000 	0.000 	-10.300 	33.800 	0.000
101.4700 	28.2100 	0.000 	0.000 	-10.300 	33.800 	0.000
101.4700 	28.2900 	0.000 	0.000 	-10.300 	33.800 	0.000
101.4700 	28.3700 	0.000 	0.000 	-10.300 	33.800 	0.000
101.4700 	28.4500 	0.000 	0.000 	-10.300 	33.800 	0.000
101.4700 	28.5300 	0.000 	0.000 	-10.300 	33.800 	0.000
101.4700 	28.6100 	0.000 	0.000 	-10.300 	33.800 	0.000
101.4700 	28.6900 	0.000 	0.000 	-10.300 	33.800 	0.000
101.4700 	28.7700 	0.000 	0.000 	-10.300 	33.800 	0.000
101.4700 	28.8500 	0.000 	0.000 	-10.300 	33.800 	0.000
101.4700 	28.9300 	0.000 	0.000 	-10.300 	33.800 	0.000
101.4700 	29.0100 	0.000 	0.000 	-10.300 	33.800 	0.000
101.4700 	29.0900 	0.000 	0.000 	-10.300 	33.800 	0.000
101.4700 	29.1700 	0.000 	0.000 	-10.300 	33.800 	0.000
101.5500 	23.6500 	0.000 	0.000 	-10.300 	33.800 	0.000
101.5500 	23.7300 	0.000 	0.000 	-10.300 	33.800 	0.000
101.5500 	23.8100 	0.000 	0.000 	-10.300 	33.800 	0.000
101.5500 	23.8900 	0.000 	0.000 	-10.300 	33.800 	0.000
101.5500 	23.9700 	0.000 	0.000 	-10.300 	33.800 	0.000
101.5500 	24.0500 	0.000 	0.000 	-10.300 	33.800 	0.000
101.5500 	24.1300 	0.000 	0.000 	-10.300 	33.800 	0.000
101.5500 	24.2100 	0.000 	0.000 	-10.300 	33.800 	0.000
101.5500 	24.2900 	0.000 	0.000 	-10.300 	33.800 	0.000
101.5500 	24.3700 	0.000 	0.000 	-10.300 	33.800 	0.000
101.5500 	24.4500 	0.000 	0.000 	-10.300 	33.800 	0.000
101.5500 	24.5300 	0.000 	0.000 	-10.300 	33.800 	0.000
101.5500 	24.6100 	0.000 	0.000 	-10.300 	33.800 	0.000
101.5500 	24.6900 	0.000 	0.000 	-10.300 	33.800 	0.000
101.5500 	24.7700 	0.000 	0.000 	-10.300 	33.800 	0.000
101.5500 	24.8500 	0.000 	0.000 	-10.300 	33.800 	0.000
101.5500 	24.9300 	0.000 	0.000 	-10.300 	33.800 	0.000
101.5500 	25.0100 	0.000 	0.000 	-10.300 	33.800 	0.000
101.5500 	25.0900 	0.000 	0.000 	-10.300 	33.800 	0.000
101.5500 	25.1700 	0.000 	0.000 	-10.300 	33.800 	0.000
101.5500 	25.2500 	0.000 	0.000 	-10.300 	33.800 	0.000
101.5500 	25.3300 	0.000 	0.000 	-10.300 	33.800 	0.000
101.5500 	25.4100 	0.000 	0.000 	-10.300 	33.800 	0.000
101.5500 	25.4900 	0.000 	0.000 	-10.300 	33.800 	0.000
101.5500 	25.5700 	0.000 	0.000 	-10.300 	33.800 	0.000
101.5500 	25.6500 	0.000 	0.000 	-10.300 	33.800 	0.000
101.5500 	25.7300 	0.000 	0.000 	-10.300 	33.800 	0.000
101.5500 	25.8100 	0.000 	0.000 	-10.300 	33.800 	0.000
101.5500 	25.8900 	0.000 	0.000 	-10.300 	33.800 	0.000
101.5500 	25.9700 	0.000 	0.000 	-10.300 	33.800 	0.000
101.5500 	26.0500 	0.000 	0.000 	-10.300 	33.800 	0.000
101.5500 	26.1300 	0.000 	0.000 	-10.300 	33.800 	0.000
101.5500 	26.2100 	0.000 	0.000 	-10.300 	33.800 	0.000
101.5500 	26.2900 	0.000 	0.000 	-10.300 	33.800 	0.000
101.5500 	26.3700 	0.000 	0.000 	-10.300 	33.800 	0.000
101.5500 	26.4500 	0.000 	0.000 	-10.300 	33.800 	0.000
101.5500 	26.5300 	0.000 	0.000 	-10.300 	33.800 	0.000
101.5500 	26.6100 	0.000 	0.000 	-10.300 	33.800 	0.000
101.5500 	26.6900 	0.000 	0.000 	-10.300 	33.800 	0.000
101.5500 	26.7700 	0.000 	0.000 	-10.300 	33.800 	0.000
101.5500 	26.8500 	0.000 	0.000 	-10.300 	33.800 	0.000
101.5500 	26.9300 	0.000 	0.000 	-10.300 	33.800 	0.000
101.5500 	27.0100 	0.000 	0.000 	-10.300 	33.800 	0.000
101.5500 	27.0900 	0.000 	0.000 	-10.300 	33.800 	0.000
101.5500 	27.1700 	0.000 	0.000 	-10.300 	33.800 	0.000
101.5500 	27.2500 	0.000 	0.000 	-10.300 	33.800 	0.000
101.5500 	27.3300 	0.000 	0.000 	-10.300 	33.800 	0.000
101.5500 	27.4100 	0.000 	0.000 	-10.300 	33.800 	0.000
101.5500 	27.4900 	0.000 	0.000 	-10.300 	33.800 	0.000
101.5500 	27.5700 	0.000 	0.000 	-10.300 	33.800 	0.000
101.5500 	27.6500 	0.000 	0.000 	-10.300 	33.800 	0.000
101.5500 	27.7300 	0.000 	0.000 	-10.300 	33.800 	0.000
101.5500 	27.8100 	0.000 	0.000 	-10.300 	33.800 	0.000
101.5500 	27.8900 	0.000 	0.000 	-10.300 	33.800 	0.000
101.5500 	27.9700 	0.000 	0.000 	-10.300 	33.800 	0.000
101.5500 	28.0500 	0.000 	0.000 	-10.300 	33.800 	0.000
101.5500 	28.1300 	0.000 	0.000 	-10.300 	33.800 	0.000
101.5500 	28.2100 	0.000 	0.000 	-10.300 	33.800 	0.000
101.5500 	28.2900 	0.000 	0.000 	-10.300 	33.800 	0.000
101.5500 	28.3700 	0.000 	0.000 	-10.300 	33.800 	0.000
101.5500 	28.4500 	0.000 	0.000 	-10.300 	33.800 	0.000
101.5500 	28.5300 	0.000 	0.000 	-10.300 	33.800 	0.000
101.5500 	28.6100 	0.000 	0.000 	-10.300 	33.800 	0.000
101.5500 	28.6900 	0.000 	0.000 	-10.300 	33.800 	0.000
101.5500 	28.7700 	0.000 	0.000 	-10.300 	33.800 	0.000
101.5500 	28.8500 	0.000 	0.000 	-10.300 	33.800 	0.000
101.5500 	28.9300 	0.000 	0.000 	-10.300 	33.800 	0.000
101.5500 	29.0100 	0.000 	0.000 	-10.300 	33.800 	0.000
101.5500 	29.0900 	0.000 	0.000 	-10.300 	33.800 	0.000
101.5500 	29.1700 	0.000 	0.000 	-10.300 	33.800 	0.000
101.6300 	23.6500 	0.000 	0.000 	-10.300 	33.800 	0.000
101.6300 	23.7300 	0.000 	0.000 	-10.300 	33.800 	0.000
101.6300 	23.8100 	0.000 	0.000 	-10.300 	33.800 	0.000
101.6300 	23.8900 	0.000 	0.000 	-10.300 	33.800 	0.000
101.6300 	23.9700 	0.000 	0.000 	-10.300 	33.800 	0.000
101.6300 	24.0500 	0.000 	0.000 	-10.300 	33.800 	0.000
101.6300 	24.1300 	0.000 	0.000 	-10.300 	33.800 	0.000
101.6300 	24.2100 	0.000 	0.000 	-10.300 	33.800 	0.000
101.6300 	24.2900 	0.000 	0.000 	-10.300 	33.800 	0.000
101.6300 	24.3700 	0.000 	0.000 	-10.300 	33.800 	0.000
101.6300 	24.4500 	0.000 	0.000 	-10.300 	33.800 	0.000
101.6300 	24.5300 	0.000 	0.000 	-10.300 	33.800 	0.000
101.6300 	24.6100 	0.000 	0.000 	-10.300 	33.800 	0.000
101.6300 	24.6900 	0.000 	0.000 	-10.300 	33.800 	0.000
101.6300 	24.7700 	0.000 	0.000 	-10.300 	33.800 	0.000
101.6300 	24.8500 	0.000 	0.000 	-10.300 	33.800 	0.000
101.6300 	24.9300 	0.000 	0.000 	-10.300 	33.800 	0.000
101.6300 	25.0100 	0.000 	0.000 	-10.300 	33.800 	0.000
101.6300 	25.0900 	0.000 	0.000 	-10.300 	33.800 	0.000
101.6300 	25.1700 	0.000 	0.000 	-10.300 	33.800 	0.000
101.6300 	25.2500 	0.000 	0.000 	-10.300 	33.800 	0.000
101.6300 	25.3300 	0.000 	0.000 	-10.300 	33.800 	0.000
101.6300 	25.4100 	0.000 	0.000 	-10.300 	33.800 	0.000
101.6300 	25.4900 	0.000 	0.000 	-10.300 	33.800 	0.000
101.6300 	25.5700 	0.000 	0.000 	-10.300 	33.800 	0.000
101.6300 	25.6500 	0.000 	0.000 	-10.300 	33.800 	0.000
101.6300 	25.7300 	0.000 	0.000 	-10.300 	33.800 	0.000
101.6300 	25.8100 	0.000 	0.000 	-10.300 	33.800 	0.000
101.6300 	25.8900 	0.000 	0.000 	-10.300 	33.800 	0.000
101.6300 	25.9700 	0.000 	0.000 	-10.300 	33.800 	0.000
101.6300 	26.0500 	0.000 	0.000 	-10.300 	33.800 	0.000
101.6300 	26.1300 	0.000 	0.000 	-10.300 	33.800 	0.000
101.6300 	26.2100 	0.000 	0.000 	-10.300 	33.800 	0.000
101.6300 	26.2900 	0.000 	0.000 	-10.300 	33.800 	0.000
101.6300 	26.3700 	0.000 	0.000 	-10.300 	33.800 	0.000
101.6300 	26.4500 	0.000 	0.000 	-10.300 	33.800 	0.000
101.6300 	26.5300 	0.000 	0.000 	-10.300 	33.800 	0.000
101.6300 	26.6100 	0.000 	0.000 	-10.300 	33.800 	0.000
101.6300 	26.6900 	0.000 	0.000 	-10.300 	33.800 	0.000
101.6300 	26.7700 	0.000 	0.000 	-10.300 	33.800 	0.000
101.6300 	26.8500 	0.000 	0.000 	-10.300 	33.800 	0.000
101.6300 	26.9300 	0.000 	0.000 	-10.300 	33.800 	0.000
101.6300 	27.0100 	0.000 	0.000 	-10.300 	33.800 	0.000
101.6300 	27.0900 	0.000 	0.000 	-10.300 	33.800 	0.000
101.6300 	27.1700 	0.000 	0.000 	-10.300 	33.800 	0.000
101.6300 	27.2500 	0.000 	0.000 	-10.300 	33.800 	0.000
101.6300 	27.3300 	0.000 	0.000 	-10.300 	33.800 	0.000
101.6300 	27.4100 	0.000 	0.000 	-10.300 	33.800 	0.000
101.6300 	27.4900 	0.000 	0.000 	-10.300 	33.800 	0.000
101.6300 	27.5700 	0.000 	0.000 	-10.300 	33.800 	0.000
101.6300 	27.6500 	0.000 	0.000 	-10.300 	33.800 	0.000
101.6300 	27.7300 	0.000 	0.000 	-10.300 	33.800 	0.000
101.6300 	27.8100 	0.000 	0.000 	-10.300 	33.800 	0.000
101.6300 	27.8900 	0.000 	0.000 	-10.300 	33.800 	0.000
101.6300 	27.9700 	0.000 	0.000 	-10.300 	33.800 	0.000
101.6300 	28.0500 	0.000 	0.000 	-10.300 	33.800 	0.000
101.6300 	28.1300 	0.000 	0.000 	-10.300 	33.800 	0.000
101.6300 	28.2100 	0.000 	0.000 	-10.300 	33.800 	0.000
101.6300 	28.2900 	0.000 	0.000 	-10.300 	33.800 	0.000
101.6300 	28.3700 	0.000 	0.000 	-10.300 	33.800 	0.000
101.6300 	28.4500 	0.000 	0.000 	-10.300 	33.800 	0.000
101.6300 	28.5300 	0.000 	0.000 	-10.300 	33.800 	0.000
101.6300 	28.6100 	0.000 	0.000 	-10.300 	33.800 	0.000
101.6300 	28.6900 	0.000 	0.000 	-10.300 	33.800 	0.000
101.6300 	28.7700 	0.000 	0.000 	-10.300 	33.800 	0.000
101.6300 	28.8500 	0.000 	0.000 	-10.300 	33.800 	0.000
101.6300 	28.9300 	0.000 	0.000 	-10.300 	33.800 	0.000
101.6300 	29.0100 	0.000 	0.000 	-10.300 	33.800 	0.000
101.6300 	29.0900 	0.000 	0.000 	-10.300 	33.800 	0.000
101.6300 	29.1700 	0.000 	0.000 	-10.300 	33.800 	0.000
101.7100 	23.8900 	0.000 	0.000 	-10.300 	33.800 	0.000
101.7100 	23.9700 	0.000 	0.000 	-10.300 	33.800 	0.000
101.7100 	24.0500 	0.000 	0.000 	-10.300 	33.800 	0.000
101.7100 	24.1300 	0.000 	0.000 	-10.300 	33.800 	0.000
101.7100 	24.2100 	0.000 	0.000 	-10.300 	33.800 	0.000
101.7100 	24.2900 	0.000 	0.000 	-10.300 	33.800 	0.000
101.7100 	24.3700 	0.000 	0.000 	-10.300 	33.800 	0.000
101.7100 	24.4500 	0.000 	0.000 	-10.300 	33.800 	0.000
101.7100 	24.5300 	0.000 	0.000 	-10.300 	33.800 	0.000
101.7100 	24.6100 	0.000 	0.000 	-10.300 	33.800 	0.000
101.7100 	24.6900 	0.000 	0.000 	-10.300 	33.800 	0.000
101.7100 	24.7700 	0.000 	0.000 	-10.300 	33.800 	0.000
101.7100 	24.8500 	0.000 	0.000 	-10.300 	33.800 	0.000
101.7100 	24.9300 	0.000 	0.000 	-10.300 	33.800 	0.000
101.7100 	25.0100 	0.000 	0.000 	-10.300 	33.800 	0.000
101.7100 	25.0900 	0.000 	0.000 	-10.300 	33.800 	0.000
101.7100 	25.1700 	0.000 	0.000 	-10.300 	33.800 	0.000
101.7100 	25.2500 	0.000 	0.000 	-10.300 	33.800 	0.000
101.7100 	25.3300 	0.000 	0.000 	-10.300 	33.800 	0.000
101.7100 	25.4100 	0.000 	0.000 	-10.300 	33.800 	0.000
101.7100 	25.4900 	0.000 	0.000 	-10.300 	33.800 	0.000
101.7100 	25.5700 	0.000 	0.000 	-10.300 	33.800 	0.000
101.7100 	25.6500 	0.000 	0.000 	-10.300 	33.800 	0.000
101.7100 	25.7300 	0.000 	0.000 	-10.300 	33.800 	0.000
101.7100 	25.8100 	0.000 	0.000 	-10.300 	33.800 	0.000
101.7100 	25.8900 	0.000 	0.000 	-10.300 	33.800 	0.000
101.7100 	25.9700 	0.000 	0.000 	-10.300 	33.800 	0.000
101.7100 	26.0500 	0.000 	0.000 	-10.300 	33.800 	0.000
101.7100 	26.1300 	0.000 	0.000 	-10.300 	33.800 	0.000
101.7100 	26.2100 	0.000 	0.000 	-10.300 	33.800 	0.000
101.7100 	26.2900 	0.000 	0.000 	-10.300 	33.800 	0.000
101.7100 	26.3700 	0.000 	0.000 	-10.300 	33.800 	0.000
101.7100 	26.4500 	0.000 	0.000 	-10.300 	33.800 	0.000
101.7100 	26.5300 	0.000 	0.000 	-10.300 	33.800 	0.000
101.7100 	26.6100 	0.000 	0.000 	-10.300 	33.800 	0.000
101.7100 	26.6900 	0.000 	0.000 	-10.300 	33.800 	0.000
101.7100 	26.7700 	0.000 	0.000 	-10.300 	33.800 	0.000
101.7100 	26.8500 	0.000 	0.000 	-10.300 	33.800 	0.000
101.7100 	26.9300 	0.000 	0.000 	-10.300 	33.800 	0.000
101.7100 	27.0100 	0.000 	0.000 	-10.300 	33.800 	0.000
101.7100 	27.0900 	0.000 	0.000 	-10.300 	33.800 	0.000
101.7100 	27.1700 	0.000 	0.000 	-10.300 	33.800 	0.000
101.7100 	27.2500 	0.000 	0.000 	-10.300 	33.800 	0.000
101.7100 	27.3300 	0.000 	0.000 	-10.300 	33.800 	0.000
101.7100 	27.4100 	0.000 	0.000 	-10.300 	33.800 	0.000
101.7100 	27.4900 	0.000 	0.000 	-10.300 	33.800 	0.000
101.7100 	27.5700 	0.000 	0.000 	-10.300 	33.800 	0.000
101.7100 	27.6500 	0.000 	0.000 	-10.300 	33.800 	0.000
101.7100 	27.7300 	0.000 	0.000 	-10.300 	33.800 	0.000
101.7100 	27.8100 	0.000 	0.000 	-10.300 	33.800 	0.000
101.7100 	27.8900 	0.000 	0.000 	-10.300 	33.800 	0.000
101.7100 	27.9700 	0.000 	0.000 	-10.300 	33.800 	0.000
101.7100 	28.0500 	0.000 	0.000 	-10.300 	33.800 	0.000
101.7100 	28.1300 	0.000 	0.000 	-10.300 	33.800 	0.000
101.7100 	28.2100 	0.000 	0.000 	-10.300 	33.800 	0.000
101.7100 	28.2900 	0.000 	0.000 	-10.300 	33.800 	0.000
101.7100 	28.3700 	0.000 	0.000 	-10.300 	33.800 	0.000
101.7100 	28.4500 	0.000 	0.000 	-10.300 	33.800 	0.000
101.7100 	28.5300 	0.000 	0.000 	-10.300 	33.800 	0.000
101.7100 	28.6100 	0.000 	0.000 	-10.300 	33.800 	0.000
101.7100 	28.6900 	0.000 	0.000 	-10.300 	33.800 	0.000
101.7100 	28.7700 	0.000 	0.000 	-10.300 	33.800 	0.000
101.7100 	28.8500 	0.000 	0.000 	-10.300 	33.800 	0.000
101.7100 	28.9300 	0.000 	0.000 	-10.300 	33.800 	0.000
101.7100 	29.0100 	0.000 	0.000 	-10.300 	33.800 	0.000
101.7100 	29.0900 	0.000 	0.000 	-10.300 	33.800 	0.000
101.7100 	29.1700 	0.000 	0.000 	-10.300 	33.800 	0.000
101.7900 	24.1300 	0.000 	0.000 	-10.300 	33.800 	0.000
101.7900 	24.2100 	0.000 	0.000 	-10.300 	33.800 	0.000
101.7900 	24.2900 	0.000 	0.000 	-10.300 	33.800 	0.000
101.7900 	24.3700 	0.000 	0.000 	-10.300 	33.800 	0.000
101.7900 	24.4500 	0.000 	0.000 	-10.300 	33.800 	0.000
101.7900 	24.5300 	0.000 	0.000 	-10.300 	33.800 	0.000
101.7900 	24.6100 	0.000 	0.000 	-10.300 	33.800 	0.000
101.7900 	24.6900 	0.000 	0.000 	-10.300 	33.800 	0.000
101.7900 	24.7700 	0.000 	0.000 	-10.300 	33.800 	0.000
101.7900 	24.8500 	0.000 	0.000 	-10.300 	33.800 	0.000
101.7900 	24.9300 	0.000 	0.000 	-10.300 	33.800 	0.000
101.7900 	25.0100 	0.000 	0.000 	-10.300 	33.800 	0.000
101.7900 	25.0900 	0.000 	0.000 	-10.300 	33.800 	0.000
101.7900 	25.1700 	0.000 	0.000 	-10.300 	33.800 	0.000
101.7900 	25.2500 	0.000 	0.000 	-10.300 	33.800 	0.000
101.7900 	25.3300 	0.000 	0.000 	-10.300 	33.800 	0.000
101.7900 	25.4100 	0.000 	0.000 	-10.300 	33.800 	0.000
101.7900 	25.4900 	0.000 	0.000 	-10.300 	33.800 	0.000
101.7900 	25.5700 	0.000 	0.000 	-10.300 	33.800 	0.000
101.7900 	25.6500 	0.000 	0.000 	-10.300 	33.800 	0.000
101.7900 	25.7300 	0.000 	0.000 	-10.300 	33.800 	0.000
101.7900 	25.8100 	0.000 	0.000 	-10.300 	33.800 	0.000
101.7900 	25.8900 	0.000 	0.000 	-10.300 	33.800 	0.000
101.7900 	25.9700 	0.000 	0.000 	-10.300 	33.800 	0.000
101.7900 	26.0500 	0.000 	0.000 	-10.300 	33.800 	0.000
101.7900 	26.1300 	0.000 	0.000 	-10.300 	33.800 	0.000
101.7900 	26.2100 	0.000 	0.000 	-10.300 	33.800 	0.000
101.7900 	26.2900 	0.000 	0.000 	-10.300 	33.800 	0.000
101.7900 	26.3700 	0.000 	0.000 	-10.300 	33.800 	0.000
101.7900 	26.4500 	0.000 	0.000 	-10.300 	33.800 	0.000
101.7900 	26.5300 	0.000 	0.000 	-10.300 	33.800 	0.000
101.7900 	26.6100 	0.000 	0.000 	-10.300 	33.800 	0.000
101.7900 	26.6900 	0.000 	0.000 	-10.300 	33.800 	0.000
101.7900 	26.7700 	0.000 	0.000 	-10.300 	33.800 	0.000
101.7900 	26.8500 	0.000 	0.000 	-10.300 	33.800 	0.000
101.7900 	26.9300 	0.000 	0.000 	-10.300 	33.800 	0.000
101.7900 	27.0100 	0.000 	0.000 	-10.300 	33.800 	0.000
101.7900 	27.0900 	0.000 	0.000 	-10.300 	33.800 	0.000
101.7900 	27.1700 	0.000 	0.000 	-10.300 	33.800 	0.000
101.7900 	27.2500 	0.000 	0.000 	-10.300 	33.800 	0.000
101.7900 	27.3300 	0.000 	0.000 	-10.300 	33.800 	0.000
101.7900 	27.4100 	0.000 	0.000 	-10.300 	33.800 	0.000
101.7900 	27.4900 	0.000 	0.000 	-10.300 	33.800 	0.000
101.7900 	27.5700 	0.000 	0.000 	-10.300 	33.800 	0.000
101.7900 	27.6500 	0.000 	0.000 	-10.300 	33.800 	0.000
101.7900 	27.7300 	0.000 	0.000 	-10.300 	33.800 	0.000
101.7900 	27.8100 	0.000 	0.000 	-10.300 	33.800 	0.000
101.7900 	27.8900 	0.000 	0.000 	-10.300 	33.800 	0.000
101.7900 	27.9700 	0.000 	0.000 	-10.300 	33.800 	0.000
101.7900 	28.0500 	0.000 	0.000 	-10.300 	33.800 	0.000
101.7900 	28.1300 	0.000 	0.000 	-10.300 	33.800 	0.000
101.7900 	28.2100 	0.000 	0.000 	-10.300 	33.800 	0.000
101.7900 	28.2900 	0.000 	0.000 	-10.300 	33.800 	0.000
101.7900 	28.3700 	0.000 	0.000 	-10.300 	33.800 	0.000
101.7900 	28.4500 	0.000 	0.000 	-10.300 	33.800 	0.000
101.7900 	28.5300 	0.000 	0.000 	-10.300 	33.800 	0.000
101.7900 	28.6100 	0.000 	0.000 	-10.300 	33.800 	0.000
101.7900 	28.6900 	0.000 	0.000 	-10.300 	33.800 	0.000
101.7900 	28.7700 	0.000 	0.000 	-10.300 	33.800 	0.000
101.7900 	28.8500 	0.000 	0.000 	-10.300 	33.800 	0.000
101.7900 	28.9300 	0.000 	0.000 	-10.300 	33.800 	0.000
101.7900 	29.0100 	0.000 	0.000 	-10.300 	33.800 	0.000
101.7900 	29.0900 	0.000 	0.000 	-10.300 	33.800 	0.000
101.7900 	29.1700 	0.000 	0.000 	-10.300 	33.800 	0.000
101.8700 	24.3700 	0.000 	0.000 	-10.300 	33.800 	0.000
101.8700 	24.4500 	0.000 	0.000 	-10.300 	33.800 	0.000
101.8700 	24.5300 	0.000 	0.000 	-10.300 	33.800 	0.000
101.8700 	24.6100 	0.000 	0.000 	-10.300 	33.800 	0.000
101.8700 	24.6900 	0.000 	0.000 	-10.300 	33.800 	0.000
101.8700 	24.7700 	0.000 	0.000 	-10.300 	33.800 	0.000
101.8700 	24.8500 	0.000 	0.000 	-10.300 	33.800 	0.000
101.8700 	24.9300 	0.000 	0.000 	-10.300 	33.800 	0.000
101.8700 	25.0100 	0.000 	0.000 	-10.300 	33.800 	0.000
101.8700 	25.0900 	0.000 	0.000 	-10.300 	33.800 	0.000
101.8700 	25.1700 	0.000 	0.000 	-10.300 	33.800 	0.000
101.8700 	25.2500 	0.000 	0.000 	-10.300 	33.800 	0.000
101.8700 	25.3300 	0.000 	0.000 	-10.300 	33.800 	0.000
101.8700 	25.4100 	0.000 	0.000 	-10.300 	33.800 	0.000
101.8700 	25.4900 	0.000 	0.000 	-10.300 	33.800 	0.000
101.8700 	25.5700 	0.000 	0.000 	-10.300 	33.800 	0.000
101.8700 	25.6500 	0.000 	0.000 	-10.300 	33.800 	0.000
101.8700 	25.7300 	0.000 	0.000 	-10.300 	33.800 	0.000
101.8700 	25.8100 	0.000 	0.000 	-10.300 	33.800 	0.000
101.8700 	25.8900 	0.000 	0.000 	-10.300 	33.800 	0.000
101.8700 	25.9700 	0.000 	0.000 	-10.300 	33.800 	0.000
101.8700 	26.0500 	0.000 	0.000 	-10.300 	33.800 	0.000
101.8700 	26.1300 	0.000 	0.000 	-10.300 	33.800 	0.000
101.8700 	26.2100 	0.000 	0.000 	-10.300 	33.800 	0.000
101.8700 	26.2900 	0.000 	0.000 	-10.300 	33.800 	0.000
101.8700 	26.3700 	0.000 	0.000 	-10.300 	33.800 	0.000
101.8700 	26.4500 	0.000 	0.000 	-10.300 	33.800 	0.000
101.8700 	26.5300 	0.000 	0.000 	-10.300 	33.800 	0.000
101.8700 	26.6100 	0.000 	0.000 	-10.300 	33.800 	0.000
101.8700 	26.6900 	0.000 	0.000 	-10.300 	33.800 	0.000
101.8700 	26.7700 	0.000 	0.000 	-10.300 	33.800 	0.000
101.8700 	26.8500 	0.000 	0.000 	-10.300 	33.800 	0.000
101.8700 	26.9300 	0.000 	0.000 	-10.300 	33.800 	0.000
101.8700 	27.0100 	0.000 	0.000 	-10.300 	33.800 	0.000
101.8700 	27.0900 	0.000 	0.000 	-10.300 	33.800 	0.000
101.8700 	27.1700 	0.000 	0.000 	-10.300 	33.800 	0.000
101.8700 	27.2500 	0.000 	0.000 	-10.300 	33.800 	0.000
101.8700 	27.3300 	0.000 	0.000 	-10.300 	33.800 	0.000
101.8700 	27.4100 	0.000 	0.000 	-10.300 	33.800 	0.000
101.8700 	27.4900 	0.000 	0.000 	-10.300 	33.800 	0.000
101.8700 	27.5700 	0.000 	0.000 	-10.300 	33.800 	0.000
101.8700 	27.6500 	0.000 	0.000 	-10.300 	33.800 	0.000
101.8700 	27.7300 	0.000 	0.000 	-10.300 	33.800 	0.000
101.8700 	27.8100 	0.000 	0.000 	-10.300 	33.800 	0.000
101.8700 	27.8900 	0.000 	0.000 	-10.300 	33.800 	0.000
101.8700 	27.9700 	0.000 	0.000 	-10.300 	33.800 	0.000
101.8700 	28.0500 	0.000 	0.000 	-10.300 	33.800 	0.000
101.8700 	28.1300 	0.000 	0.000 	-10.300 	33.800 	0.000
101.8700 	28.2100 	0.000 	0.000 	-10.300 	33.800 	0.000
101.8700 	28.2900 	0.000 	0.000 	-10.300 	33.800 	0.000
101.8700 	28.3700 	0.000 	0.000 	-10.300 	33.800 	0.000
101.8700 	28.4500 	0.000 	0.000 	-10.300 	33.800 	0.000
101.8700 	28.5300 	0.000 	0.000 	-10.300 	33.800 	0.000
101.8700 	28.6100 	0.000 	0.000 	-10.300 	33.800 	0.000
101.8700 	28.6900 	0.000 	0.000 	-10.300 	33.800 	0.000
101.8700 	28.7700 	0.000 	0.000 	-10.300 	33.800 	0.000
101.8700 	28.8500 	0.000 	0.000 	-10.300 	33.800 	0.000
101.8700 	28.9300 	0.000 	0.000 	-10.300 	33.800 	0.000
101.8700 	29.0100 	0.000 	0.000 	-10.300 	33.800 	0.000
101.8700 	29.0900 	0.000 	0.000 	-10.300 	33.800 	0.000
101.8700 	29.1700 	0.000 	0.000 	-10.300 	33.800 	0.000
101.9500 	24.6100 	0.000 	0.000 	-10.300 	33.800 	0.000
101.9500 	24.6900 	0.000 	0.000 	-10.300 	33.800 	0.000
101.9500 	24.7700 	0.000 	0.000 	-10.300 	33.800 	0.000
101.9500 	24.8500 	0.000 	0.000 	-10.300 	33.800 	0.000
101.9500 	24.9300 	0.000 	0.000 	-10.300 	33.800 	0.000
101.9500 	25.0100 	0.000 	0.000 	-10.300 	33.800 	0.000
101.9500 	25.0900 	0.000 	0.000 	-10.300 	33.800 	0.000
101.9500 	25.1700 	0.000 	0.000 	-10.300 	33.800 	0.000
101.9500 	25.2500 	0.000 	0.000 	-10.300 	33.800 	0.000
101.9500 	25.3300 	0.000 	0.000 	-10.300 	33.800 	0.000
101.9500 	25.4100 	0.000 	0.000 	-10.300 	33.800 	0.000
101.9500 	25.4900 	0.000 	0.000 	-10.300 	33.800 	0.000
101.9500 	25.5700 	0.000 	0.000 	-10.300 	33.800 	0.000
101.9500 	25.6500 	0.000 	0.000 	-10.300 	33.800 	0.000
101.9500 	25.7300 	0.000 	0.000 	-10.300 	33.800 	0.000
101.9500 	25.8100 	0.000 	0.000 	-10.300 	33.800 	0.000
101.9500 	25.8900 	0.000 	0.000 	-10.300 	33.800 	0.000
101.9500 	25.9700 	0.000 	0.000 	-10.300 	33.800 	0.000
101.9500 	26.0500 	0.000 	0.000 	-10.300 	33.800 	0.000
101.9500 	26.1300 	0.000 	0.000 	-10.300 	33.800 	0.000
101.9500 	26.2100 	0.000 	0.000 	-10.300 	33.800 	0.000
101.9500 	26.2900 	0.000 	0.000 	-10.300 	33.800 	0.000
101.9500 	26.3700 	0.000 	0.000 	-10.300 	33.800 	0.000
101.9500 	26.4500 	0.000 	0.000 	-10.300 	33.800 	0.000
101.9500 	26.5300 	0.000 	0.000 	-10.300 	33.800 	0.000
101.9500 	26.6100 	0.000 	0.000 	-10.300 	33.800 	0.000
101.9500 	26.6900 	0.000 	0.000 	-10.300 	33.800 	0.000
101.9500 	26.7700 	0.000 	0.000 	-10.300 	33.800 	0.000
101.9500 	26.8500 	0.000 	0.000 	-10.300 	33.800 	0.000
101.9500 	26.9300 	0.000 	0.000 	-10.300 	33.800 	0.000
101.9500 	27.0100 	0.000 	0.000 	-10.300 	33.800 	0.000
101.9500 	27.0900 	0.000 	0.000 	-10.300 	33.800 	0.000
101.9500 	27.1700 	0.000 	0.000 	-10.300 	33.800 	0.000
101.9500 	27.2500 	0.000 	0.000 	-10.300 	33.800 	0.000
101.9500 	27.3300 	0.000 	0.000 	-10.300 	33.800 	0.000
101.9500 	27.4100 	0.000 	0.000 	-10.300 	33.800 	0.000
101.9500 	27.4900 	0.000 	0.000 	-10.300 	33.800 	0.000
101.9500 	27.5700 	0.000 	0.000 	-10.300 	33.800 	0.000
101.9500 	27.6500 	0.000 	0.000 	-10.300 	33.800 	0.000
101.9500 	27.7300 	0.000 	0.000 	-10.300 	33.800 	0.000
101.9500 	27.8100 	0.000 	0.000 	-10.300 	33.800 	0.000
101.9500 	27.8900 	0.000 	0.000 	-10.300 	33.800 	0.000
101.9500 	27.9700 	0.000 	0.000 	-10.300 	33.800 	0.000
101.9500 	28.0500 	0.000 	0.000 	-10.300 	33.800 	0.000
101.9500 	28.1300 	0.000 	0.000 	-10.300 	33.800 	0.000
101.9500 	28.2100 	0.000 	0.000 	-10.300 	33.800 	0.000
101.9500 	28.2900 	0.000 	0.000 	-10.300 	33.800 	0.000
101.9500 	28.3700 	0.000 	0.000 	-10.300 	33.800 	0.000
101.9500 	28.4500 	0.000 	0.000 	-10.300 	33.800 	0.000
101.9500 	28.5300 	0.000 	0.000 	-10.300 	33.800 	0.000
101.9500 	28.6100 	0.000 	0.000 	-10.300 	33.800 	0.000
101.9500 	28.6900 	0.000 	0.000 	-10.300 	33.800 	0.000
101.9500 	28.7700 	0.000 	0.000 	-10.300 	33.800 	0.000
101.9500 	28.8500 	0.000 	0.000 	-10.300 	33.800 	0.000
101.9500 	28.9300 	0.000 	0.000 	-10.300 	33.800 	0.000
101.9500 	29.0100 	0.000 	0.000 	-10.300 	33.800 	0.000
101.9500 	29.0900 	0.000 	0.000 	-10.300 	33.800 	0.000
101.9500 	29.1700 	0.000 	0.000 	-10.300 	33.800 	0.000
102.0300 	24.8500 	0.000 	0.000 	-10.300 	33.800 	0.000
102.0300 	24.9300 	0.000 	0.000 	-10.300 	33.800 	0.000
102.0300 	25.0100 	0.000 	0.000 	-10.300 	33.800 	0.000
102.0300 	25.0900 	0.000 	0.000 	-10.300 	33.800 	0.000
102.0300 	25.1700 	0.000 	0.000 	-10.300 	33.800 	0.000
102.0300 	25.2500 	0.000 	0.000 	-10.300 	33.800 	0.000
102.0300 	25.3300 	0.000 	0.000 	-10.300 	33.800 	0.000
102.0300 	25.4100 	0.000 	0.000 	-10.300 	33.800 	0.000
102.0300 	25.4900 	0.000 	0.000 	-10.300 	33.800 	0.000
102.0300 	25.5700 	0.000 	0.000 	-10.300 	33.800 	0.000
102.0300 	25.6500 	0.000 	0.000 	-10.300 	33.800 	0.000
102.0300 	25.7300 	0.000 	0.000 	-10.300 	33.800 	0.000
102.0300 	25.8100 	0.000 	0.000 	-10.300 	33.800 	0.000
102.0300 	25.8900 	0.000 	0.000 	-10.300 	33.800 	0.000
102.0300 	25.9700 	0.000 	0.000 	-10.300 	33.800 	0.000
102.0300 	26.0500 	0.000 	0.000 	-10.300 	33.800 	0.000
102.0300 	26.1300 	0.000 	0.000 	-10.300 	33.800 	0.000
102.0300 	26.2100 	0.000 	0.000 	-10.300 	33.800 	0.000
102.0300 	26.2900 	0.000 	0.000 	-10.300 	33.800 	0.000
102.0300 	26.3700 	0.000 	0.000 	-10.300 	33.800 	0.000
102.0300 	26.4500 	0.000 	0.000 	-10.300 	33.800 	0.000
102.0300 	26.5300 	0.000 	0.000 	-10.300 	33.800 	0.000
102.0300 	26.6100 	0.000 	0.000 	-10.300 	33.800 	0.000
102.0300 	26.6900 	0.000 	0.000 	-10.300 	33.800 	0.000
102.0300 	26.7700 	0.000 	0.000 	-10.300 	33.800 	0.000
102.0300 	26.8500 	0.000 	0.000 	-10.300 	33.800 	0.000
102.0300 	26.9300 	0.000 	0.000 	-10.300 	33.800 	0.000
102.0300 	27.0100 	0.000 	0.000 	-10.300 	33.800 	0.000
102.0300 	27.0900 	0.000 	0.000 	-10.300 	33.800 	0.000
102.0300 	27.1700 	0.000 	0.000 	-10.300 	33.800 	0.000
102.0300 	27.2500 	0.000 	0.000 	-10.300 	33.800 	0.000
102.0300 	27.3300 	0.000 	0.000 	-10.300 	33.800 	0.000
102.0300 	27.4100 	0.000 	0.000 	-10.300 	33.800 	0.000
102.0300 	27.4900 	0.000 	0.000 	-10.300 	33.800 	0.000
102.0300 	27.5700 	0.000 	0.000 	-10.300 	33.800 	0.000
102.0300 	27.6500 	0.000 	0.000 	-10.300 	33.800 	0.000
102.0300 	27.7300 	0.000 	0.000 	-10.300 	33.800 	0.000
102.0300 	27.8100 	0.000 	0.000 	-10.300 	33.800 	0.000
102.0300 	27.8900 	0.000 	0.000 	-10.300 	33.800 	0.000
102.0300 	27.9700 	0.000 	0.000 	-10.300 	33.800 	0.000
102.0300 	28.0500 	0.000 	0.000 	-10.300 	33.800 	0.000
102.0300 	28.1300 	0.000 	0.000 	-10.300 	33.800 	0.000
102.0300 	28.2100 	0.000 	0.000 	-10.300 	33.800 	0.000
102.0300 	28.2900 	0.000 	0.000 	-10.300 	33.800 	0.000
102.0300 	28.3700 	0.000 	0.000 	-10.300 	33.800 	0.000
102.0300 	28.4500 	0.000 	0.000 	-10.300 	33.800 	0.000
102.0300 	28.5300 	0.000 	0.000 	-10.300 	33.800 	0.000
102.0300 	28.6100 	0.000 	0.000 	-10.300 	33.800 	0.000
102.0300 	28.6900 	0.000 	0.000 	-10.300 	33.800 	0.000
102.0300 	28.7700 	0.000 	0.000 	-10.300 	33.800 	0.000
102.0300 	28.8500 	0.000 	0.000 	-10.300 	33.800 	0.000
102.0300 	28.9300 	0.000 	0.000 	-10.300 	33.800 	0.000
102.0300 	29.0100 	0.000 	0.000 	-10.300 	33.800 	0.000
102.0300 	29.0900 	0.000 	0.000 	-10.300 	33.800 	0.000
102.0300 	29.1700 	0.000 	0.000 	-10.300 	33.800 	0.000
102.1100 	25.0900 	0.000 	0.000 	-10.300 	33.800 	0.000
102.1100 	25.1700 	0.000 	0.000 	-10.300 	33.800 	0.000
102.1100 	25.2500 	0.000 	0.000 	-10.300 	33.800 	0.000
102.1100 	25.3300 	0.000 	0.000 	-10.300 	33.800 	0.000
102.1100 	25.4100 	0.000 	0.000 	-10.300 	33.800 	0.000
102.1100 	25.4900 	0.000 	0.000 	-10.300 	33.800 	0.000
102.1100 	25.5700 	0.000 	0.000 	-10.300 	33.800 	0.000
102.1100 	25.6500 	0.000 	0.000 	-10.300 	33.800 	0.000
102.1100 	25.7300 	0.000 	0.000 	-10.300 	33.800 	0.000
102.1100 	25.8100 	0.000 	0.000 	-10.300 	33.800 	0.000
102.1100 	25.8900 	0.000 	0.000 	-10.300 	33.800 	0.000
102.1100 	25.9700 	0.000 	0.000 	-10.300 	33.800 	0.000
102.1100 	26.0500 	0.000 	0.000 	-10.300 	33.800 	0.000
102.1100 	26.1300 	0.000 	0.000 	-10.300 	33.800 	0.000
102.1100 	26.2100 	0.000 	0.000 	-10.300 	33.800 	0.000
102.1100 	26.2900 	0.000 	0.000 	-10.300 	33.800 	0.000
102.1100 	26.3700 	0.000 	0.000 	-10.300 	33.800 	0.000
102.1100 	26.4500 	0.000 	0.000 	-10.300 	33.800 	0.000
102.1100 	26.5300 	0.000 	0.000 	-10.300 	33.800 	0.000
102.1100 	26.6100 	0.000 	0.000 	-10.300 	33.800 	0.000
102.1100 	26.6900 	0.000 	0.000 	-10.300 	33.800 	0.000
102.1100 	26.7700 	0.000 	0.000 	-10.300 	33.800 	0.000
102.1100 	26.8500 	0.000 	0.000 	-10.300 	33.800 	0.000
102.1100 	26.9300 	0.000 	0.000 	-10.300 	33.800 	0.000
102.1100 	27.0100 	0.000 	0.000 	-10.300 	33.800 	0.000
102.1100 	27.0900 	0.000 	0.000 	-10.300 	33.800 	0.000
102.1100 	27.1700 	0.000 	0.000 	-10.300 	33.800 	0.000
102.1100 	27.2500 	0.000 	0.000 	-10.300 	33.800 	0.000
102.1100 	27.3300 	0.000 	0.000 	-10.300 	33.800 	0.000
102.1100 	27.4100 	0.000 	0.000 	-10.300 	33.800 	0.000
102.1100 	27.4900 	0.000 	0.000 	-10.300 	33.800 	0.000
102.1100 	27.5700 	0.000 	0.000 	-10.300 	33.800 	0.000
102.1100 	27.6500 	0.000 	0.000 	-10.300 	33.800 	0.000
102.1100 	27.7300 	0.000 	0.000 	-10.300 	33.800 	0.000
102.1100 	27.8100 	0.000 	0.000 	-10.300 	33.800 	0.000
102.1100 	27.8900 	0.000 	0.000 	-10.300 	33.800 	0.000
102.1100 	27.9700 	0.000 	0.000 	-10.300 	33.800 	0.000
102.1100 	28.0500 	0.000 	0.000 	-10.300 	33.800 	0.000
102.1100 	28.1300 	0.000 	0.000 	-10.300 	33.800 	0.000
102.1100 	28.2100 	0.000 	0.000 	-10.300 	33.800 	0.000
102.1100 	28.2900 	0.000 	0.000 	-10.300 	33.800 	0.000
102.1100 	28.3700 	0.000 	0.000 	-10.300 	33.800 	0.000
102.1100 	28.4500 	0.000 	0.000 	-10.300 	33.800 	0.000
102.1100 	28.5300 	0.000 	0.000 	-10.300 	33.800 	0.000
102.1100 	28.6100 	0.000 	0.000 	-10.300 	33.800 	0.000
102.1100 	28.6900 	0.000 	0.000 	-10.300 	33.800 	0.000
102.1100 	28.7700 	0.000 	0.000 	-10.300 	33.800 	0.000
102.1100 	28.8500 	0.000 	0.000 	-10.300 	33.800 	0.000
102.1100 	28.9300 	0.000 	0.000 	-10.300 	33.800 	0.000
102.1100 	29.0100 	0.000 	0.000 	-10.300 	33.800 	0.000
102.1100 	29.0900 	0.000 	0.000 	-10.300 	33.800 	0.000
102.1100 	29.1700 	0.000 	0.000 	-10.300 	33.800 	0.000
102.1900 	25.3300 	0.000 	0.000 	-10.300 	33.800 	0.000
102.1900 	25.4100 	0.000 	0.000 	-10.300 	33.800 	0.000
102.1900 	25.4900 	0.000 	0.000 	-10.300 	33.800 	0.000
102.1900 	25.5700 	0.000 	0.000 	-10.300 	33.800 	0.000
102.1900 	25.6500 	0.000 	0.000 	-10.300 	33.800 	0.000
102.1900 	25.7300 	0.000 	0.000 	-10.300 	33.800 	0.000
102.1900 	25.8100 	0.000 	0.000 	-10.300 	33.800 	0.000
102.1900 	25.8900 	0.000 	0.000 	-10.300 	33.800 	0.000
102.1900 	25.9700 	0.000 	0.000 	-10.300 	33.800 	0.000
102.1900 	26.0500 	0.000 	0.000 	-10.300 	33.800 	0.000
102.1900 	26.1300 	0.000 	0.000 	-10.300 	33.800 	0.000
102.1900 	26.2100 	0.000 	0.000 	-10.300 	33.800 	0.000
102.1900 	26.2900 	0.000 	0.000 	-10.300 	33.800 	0.000
102.1900 	26.3700 	0.000 	0.000 	-10.300 	33.800 	0.000
102.1900 	26.4500 	0.000 	0.000 	-10.300 	33.800 	0.000
102.1900 	26.5300 	0.000 	0.000 	-10.300 	33.800 	0.000
102.1900 	26.6100 	0.000 	0.000 	-10.300 	33.800 	0.000
102.1900 	26.6900 	0.000 	0.000 	-10.300 	33.800 	0.000
102.1900 	26.7700 	0.000 	0.000 	-10.300 	33.800 	0.000
102.1900 	26.8500 	0.000 	0.000 	-10.300 	33.800 	0.000
102.1900 	26.9300 	0.000 	0.000 	-10.300 	33.800 	0.000
102.1900 	27.0100 	0.000 	0.000 	-10.300 	33.800 	0.000
102.1900 	27.0900 	0.000 	0.000 	-10.300 	33.800 	0.000
102.1900 	27.1700 	0.000 	0.000 	-10.300 	33.800 	0.000
102.1900 	27.2500 	0.000 	0.000 	-10.300 	33.800 	0.000
102.1900 	27.3300 	0.000 	0.000 	-10.300 	33.800 	0.000
102.1900 	27.4100 	0.000 	0.000 	-10.300 	33.800 	0.000
102.1900 	27.4900 	0.000 	0.000 	-10.300 	33.800 	0.000
102.1900 	27.5700 	0.000 	0.000 	-10.300 	33.800 	0.000
102.1900 	27.6500 	0.000 	0.000 	-10.300 	33.800 	0.000
102.1900 	27.7300 	0.000 	0.000 	-10.300 	33.800 	0.000
102.1900 	27.8100 	0.000 	0.000 	-10.300 	33.800 	0.000
102.1900 	27.8900 	0.000 	0.000 	-10.300 	33.800 	0.000
102.1900 	27.9700 	0.000 	0.000 	-10.300 	33.800 	0.000
102.1900 	28.0500 	0.000 	0.000 	-10.300 	33.800 	0.000
102.1900 	28.1300 	0.000 	0.000 	-10.300 	33.800 	0.000
102.1900 	28.2100 	0.000 	0.000 	-10.300 	33.800 	0.000
102.1900 	28.2900 	0.000 	0.000 	-10.300 	33.800 	0.000
102.1900 	28.3700 	0.000 	0.000 	-10.300 	33.800 	0.000
102.1900 	28.4500 	0.000 	0.000 	-10.300 	33.800 	0.000
102.1900 	28.5300 	0.000 	0.000 	-10.300 	33.800 	0.000
102.1900 	28.6100 	0.000 	0.000 	-10.300 	33.800 	0.000
102.1900 	28.6900 	0.000 	0.000 	-10.300 	33.800 	0.000
102.1900 	28.7700 	0.000 	0.000 	-10.300 	33.800 	0.000
102.1900 	28.8500 	0.000 	0.000 	-10.300 	33.800 	0.000
102.1900 	28.9300 	0.000 	0.000 	-10.300 	33.800 	0.000
102.1900 	29.0100 	0.000 	0.000 	-10.300 	33.800 	0.000
102.1900 	29.0900 	0.000 	0.000 	-10.300 	33.800 	0.000
102.1900 	29.1700 	0.000 	0.000 	-10.300 	33.800 	0.000
102.2700 	25.6500 	0.000 	0.000 	-10.300 	33.800 	0.000
102.2700 	25.7300 	0.000 	0.000 	-10.300 	33.800 	0.000
102.2700 	25.8100 	0.000 	0.000 	-10.300 	33.800 	0.000
102.2700 	25.8900 	0.000 	0.000 	-10.300 	33.800 	0.000
102.2700 	25.9700 	0.000 	0.000 	-10.300 	33.800 	0.000
102.2700 	26.0500 	0.000 	0.000 	-10.300 	33.800 	0.000
102.2700 	26.1300 	0.000 	0.000 	-10.300 	33.800 	0.000
102.2700 	26.2100 	0.000 	0.000 	-10.300 	33.800 	0.000
102.2700 	26.2900 	0.000 	0.000 	-10.300 	33.800 	0.000
102.2700 	26.3700 	0.000 	0.000 	-10.300 	33.800 	0.000
102.2700 	26.4500 	0.000 	0.000 	-10.300 	33.800 	0.000
102.2700 	26.5300 	0.000 	0.000 	-10.300 	33.800 	0.000
102.2700 	26.6100 	0.000 	0.000 	-10.300 	33.800 	0.000
102.2700 	26.6900 	0.000 	0.000 	-10.300 	33.800 	0.000
102.2700 	26.7700 	0.000 	0.000 	-10.300 	33.800 	0.000
102.2700 	26.8500 	0.000 	0.000 	-10.300 	33.800 	0.000
102.2700 	26.9300 	0.000 	0.000 	-10.300 	33.800 	0.000
102.2700 	27.0100 	0.000 	0.000 	-10.300 	33.800 	0.000
102.2700 	27.0900 	0.000 	0.000 	-10.300 	33.800 	0.000
102.2700 	27.1700 	0.000 	0.000 	-10.300 	33.800 	0.000
102.2700 	27.2500 	0.000 	0.000 	-10.300 	33.800 	0.000
102.2700 	27.3300 	0.000 	0.000 	-10.300 	33.800 	0.000
102.2700 	27.4100 	0.000 	0.000 	-10.300 	33.800 	0.000
102.2700 	27.4900 	0.000 	0.000 	-10.300 	33.800 	0.000
102.2700 	27.5700 	0.000 	0.000 	-10.300 	33.800 	0.000
102.2700 	27.6500 	0.000 	0.000 	-10.300 	33.800 	0.000
102.2700 	27.7300 	0.000 	0.000 	-10.300 	33.800 	0.000
102.2700 	27.8100 	0.000 	0.000 	-10.300 	33.800 	0.000
102.2700 	27.8900 	0.000 	0.000 	-10.300 	33.800 	0.000
102.2700 	27.9700 	0.000 	0.000 	-10.300 	33.800 	0.000
102.2700 	28.0500 	0.000 	0.000 	-10.300 	33.800 	0.000
102.2700 	28.1300 	0.000 	0.000 	-10.300 	33.800 	0.000
102.2700 	28.2100 	0.000 	0.000 	-10.300 	33.800 	0.000
102.2700 	28.2900 	0.000 	0.000 	-10.300 	33.800 	0.000
102.2700 	28.3700 	0.000 	0.000 	-10.300 	33.800 	0.000
102.2700 	28.4500 	0.000 	0.000 	-10.300 	33.800 	0.000
102.2700 	28.5300 	0.000 	0.000 	-10.300 	33.800 	0.000
102.2700 	28.6100 	0.000 	0.000 	-10.300 	33.800 	0.000
102.2700 	28.6900 	0.000 	0.000 	-10.300 	33.800 	0.000
102.2700 	28.7700 	0.000 	0.000 	-10.300 	33.800 	0.000
102.2700 	28.8500 	0.000 	0.000 	-10.300 	33.800 	0.000
102.2700 	28.9300 	0.000 	0.000 	-10.300 	33.800 	0.000
102.2700 	29.0100 	0.000 	0.000 	-10.300 	33.800 	0.000
102.2700 	29.0900 	0.000 	0.000 	-10.300 	33.800 	0.000
102.2700 	29.1700 	0.000 	0.000 	-10.300 	33.800 	0.000
102.3500 	25.8900 	0.000 	0.000 	-10.300 	33.800 	0.000
102.3500 	25.9700 	0.000 	0.000 	-10.300 	33.800 	0.000
102.3500 	26.0500 	0.000 	0.000 	-10.300 	33.800 	0.000
102.3500 	26.1300 	0.000 	0.000 	-10.300 	33.800 	0.000
102.3500 	26.2100 	0.000 	0.000 	-10.300 	33.800 	0.000
102.3500 	26.2900 	0.000 	0.000 	-10.300 	33.800 	0.000
102.3500 	26.3700 	0.000 	0.000 	-10.300 	33.800 	0.000
102.3500 	26.4500 	0.000 	0.000 	-10.300 	33.800 	0.000
102.3500 	26.5300 	0.000 	0.000 	-10.300 	33.800 	0.000
102.3500 	26.6100 	0.000 	0.000 	-10.300 	33.800 	0.000
102.3500 	26.6900 	0.000 	0.000 	-10.300 	33.800 	0.000
102.3500 	26.7700 	0.000 	0.000 	-10.300 	33.800 	0.000
102.3500 	26.8500 	0.000 	0.000 	-10.300 	33.800 	0.000
102.3500 	26.9300 	0.000 	0.000 	-10.300 	33.800 	0.000
102.3500 	27.0100 	0.000 	0.000 	-10.300 	33.800 	0.000
102.3500 	27.0900 	0.000 	0.000 	-10.300 	33.800 	0.000
102.3500 	27.1700 	0.000 	0.000 	-10.300 	33.800 	0.000
102.3500 	27.2500 	0.000 	0.000 	-10.300 	33.800 	0.000
102.3500 	27.3300 	0.000 	0.000 	-10.300 	33.800 	0.000
102.3500 	27.4100 	0.000 	0.000 	-10.300 	33.800 	0.000
102.3500 	27.4900 	0.000 	0.000 	-10.300 	33.800 	0.000
102.3500 	27.5700 	0.000 	0.000 	-10.300 	33.800 	0.000
102.3500 	27.6500 	0.000 	0.000 	-10.300 	33.800 	0.000
102.3500 	27.7300 	0.000 	0.000 	-10.300 	33.800 	0.000
102.3500 	27.8100 	0.000 	0.000 	-10.300 	33.800 	0.000
102.3500 	27.8900 	0.000 	0.000 	-10.300 	33.800 	0.000
102.3500 	27.9700 	0.000 	0.000 	-10.300 	33.800 	0.000
102.3500 	28.0500 	0.000 	0.000 	-10.300 	33.800 	0.000
102.3500 	28.1300 	0.000 	0.000 	-10.300 	33.800 	0.000
102.3500 	28.2100 	0.000 	0.000 	-10.300 	33.800 	0.000
102.3500 	28.2900 	0.000 	0.000 	-10.300 	33.800 	0.000
102.3500 	28.3700 	0.000 	0.000 	-10.300 	33.800 	0.000
102.3500 	28.4500 	0.000 	0.000 	-10.300 	33.800 	0.000
102.3500 	28.5300 	0.000 	0.000 	-10.300 	33.800 	0.000
102.3500 	28.6100 	0.000 	0.000 	-10.300 	33.800 	0.000
102.3500 	28.6900 	0.000 	0.000 	-10.300 	33.800 	0.000
102.3500 	28.7700 	0.000 	0.000 	-10.300 	33.800 	0.000
102.3500 	28.8500 	0.000 	0.000 	-10.300 	33.800 	0.000
102.3500 	28.9300 	0.000 	0.000 	-10.300 	33.800 	0.000
102.3500 	29.0100 	0.000 	0.000 	-10.300 	33.800 	0.000
102.3500 	29.0900 	0.000 	0.000 	-10.300 	33.800 	0.000
102.4300 	26.2100 	0.000 	0.000 	-10.300 	33.800 	0.000
102.4300 	26.2900 	0.000 	0.000 	-10.300 	33.800 	0.000
102.4300 	26.3700 	0.000 	0.000 	-10.300 	33.800 	0.000
102.4300 	26.4500 	0.000 	0.000 	-10.300 	33.800 	0.000
102.4300 	26.5300 	0.000 	0.000 	-10.300 	33.800 	0.000
102.4300 	26.6100 	0.000 	0.000 	-10.300 	33.800 	0.000
102.4300 	26.6900 	0.000 	0.000 	-10.300 	33.800 	0.000
102.4300 	26.7700 	0.000 	0.000 	-10.300 	33.800 	0.000
102.4300 	26.8500 	0.000 	0.000 	-10.300 	33.800 	0.000
102.4300 	26.9300 	0.000 	0.000 	-10.300 	33.800 	0.000
102.4300 	27.0100 	0.000 	0.000 	-10.300 	33.800 	0.000
102.4300 	27.0900 	0.000 	0.000 	-10.300 	33.800 	0.000
102.4300 	27.1700 	0.000 	0.000 	-10.300 	33.800 	0.000
102.4300 	27.2500 	0.000 	0.000 	-10.300 	33.800 	0.000
102.4300 	27.3300 	0.000 	0.000 	-10.300 	33.800 	0.000
102.4300 	27.4100 	0.000 	0.000 	-10.300 	33.800 	0.000
102.4300 	27.4900 	0.000 	0.000 	-10.300 	33.800 	0.000
102.4300 	27.5700 	0.000 	0.000 	-10.300 	33.800 	0.000
102.4300 	27.6500 	0.000 	0.000 	-10.300 	33.800 	0.000
102.4300 	27.7300 	0.000 	0.000 	-10.300 	33.800 	0.000
102.4300 	27.8100 	0.000 	0.000 	-10.300 	33.800 	0.000
102.4300 	27.8900 	0.000 	0.000 	-10.300 	33.800 	0.000
102.4300 	27.9700 	0.000 	0.000 	-10.300 	33.800 	0.000
102.4300 	28.0500 	0.000 	0.000 	-10.300 	33.800 	0.000
102.4300 	28.1300 	0.000 	0.000 	-10.300 	33.800 	0.000
102.4300 	28.2100 	0.000 	0.000 	-10.300 	33.800 	0.000
102.4300 	28.2900 	0.000 	0.000 	-10.300 	33.800 	0.000
102.4300 	28.3700 	0.000 	0.000 	-10.300 	33.800 	0.000
102.4300 	28.4500 	0.000 	0.000 	-10.300 	33.800 	0.000
102.4300 	28.5300 	0.000 	0.000 	-10.300 	33.800 	0.000
102.4300 	28.6100 	0.000 	0.000 	-10.300 	33.800 	0.000
102.4300 	28.6900 	0.000 	0.000 	-10.300 	33.800 	0.000
102.4300 	28.7700 	0.000 	0.000 	-10.300 	33.800 	0.000
102.4300 	28.8500 	0.000 	0.000 	-10.300 	33.800 	0.000
102.5100 	26.3700 	0.000 	0.000 	-10.300 	33.800 	0.000
102.5100 	26.4500 	0.000 	0.000 	-10.300 	33.800 	0.000
102.5100 	26.5300 	0.000 	0.000 	-10.300 	33.800 	0.000
102.5100 	26.6100 	0.000 	0.000 	-10.300 	33.800 	0.000
102.5100 	26.6900 	0.000 	0.000 	-10.300 	33.800 	0.000
102.5100 	26.7700 	0.000 	0.000 	-10.300 	33.800 	0.000
102.5100 	26.8500 	0.000 	0.000 	-10.300 	33.800 	0.000
102.5100 	26.9300 	0.000 	0.000 	-10.300 	33.800 	0.000
102.5100 	27.0100 	0.000 	0.000 	-10.300 	33.800 	0.000
102.5100 	27.0900 	0.000 	0.000 	-10.300 	33.800 	0.000
102.5100 	27.1700 	0.000 	0.000 	-10.300 	33.800 	0.000
102.5100 	27.2500 	0.000 	0.000 	-10.300 	33.800 	0.000
102.5100 	27.3300 	0.000 	0.000 	-10.300 	33.800 	0.000
102.5100 	27.4100 	0.000 	0.000 	-10.300 	33.800 	0.000
102.5100 	27.4900 	0.000 	0.000 	-10.300 	33.800 	0.000
102.5100 	27.5700 	0.000 	0.000 	-10.300 	33.800 	0.000
102.5100 	27.6500 	0.000 	0.000 	-10.300 	33.800 	0.000
102.5100 	27.7300 	0.000 	0.000 	-10.300 	33.800 	0.000
102.5100 	27.8100 	0.000 	0.000 	-10.300 	33.800 	0.000
102.5100 	27.8900 	0.000 	0.000 	-10.300 	33.800 	0.000
102.5100 	27.9700 	0.000 	0.000 	-10.300 	33.800 	0.000
102.5100 	28.0500 	0.000 	0.000 	-10.300 	33.800 	0.000
102.5100 	28.1300 	0.000 	0.000 	-10.300 	33.800 	0.000
102.5100 	28.2100 	0.000 	0.000 	-10.300 	33.800 	0.000
102.5100 	28.2900 	0.000 	0.000 	-10.300 	33.800 	0.000
102.5100 	28.3700 	0.000 	0.000 	-10.300 	33.800 	0.000
102.5100 	28.4500 	0.000 	0.000 	-10.300 	33.800 	0.000
102.5100 	28.5300 	0.000 	0.000 	-10.300 	33.800 	0.000
102.5100 	28.6100 	0.000 	0.000 	-10.300 	33.800 	0.000
102.5100 	28.6900 	0.000 	0.000 	-10.300 	33.800 	0.000
102.5900 	26.5300 	0.000 	0.000 	-10.300 	33.800 	0.000
102.5900 	26.6100 	0.000 	0.000 	-10.300 	33.800 	0.000
102.5900 	26.6900 	0.000 	0.000 	-10.300 	33.800 	0.000
102.5900 	26.7700 	0.000 	0.000 	-10.300 	33.800 	0.000
102.5900 	26.8500 	0.000 	0.000 	-10.300 	33.800 	0.000
102.5900 	26.9300 	0.000 	0.000 	-10.300 	33.800 	0.000
102.5900 	27.0100 	0.000 	0.000 	-10.300 	33.800 	0.000
102.5900 	27.0900 	0.000 	0.000 	-10.300 	33.800 	0.000
102.5900 	27.1700 	0.000 	0.000 	-10.300 	33.800 	0.000
102.5900 	27.2500 	0.000 	0.000 	-10.300 	33.800 	0.000
102.5900 	27.3300 	0.000 	0.000 	-10.300 	33.800 	0.000
102.5900 	27.4100 	0.000 	0.000 	-10.300 	33.800 	0.000
102.5900 	27.4900 	0.000 	0.000 	-10.300 	33.800 	0.000
102.5900 	27.5700 	0.000 	0.000 	-10.300 	33.800 	0.000
102.5900 	27.6500 	0.000 	0.000 	-10.300 	33.800 	0.000
102.5900 	27.7300 	0.000 	0.000 	-10.300 	33.800 	0.000
102.5900 	27.8100 	0.000 	0.000 	-10.300 	33.800 	0.000
102.5900 	27.8900 	0.000 	0.000 	-10.300 	33.800 	0.000
102.5900 	27.9700 	0.000 	0.000 	-10.300 	33.800 	0.000
102.5900 	28.0500 	0.000 	0.000 	-10.300 	33.800 	0.000
102.5900 	28.1300 	0.000 	0.000 	-10.300 	33.800 	0.000
102.5900 	28.2100 	0.000 	0.000 	-10.300 	33.800 	0.000
102.5900 	28.2900 	0.000 	0.000 	-10.300 	33.800 	0.000
102.5900 	28.3700 	0.000 	0.000 	-10.300 	33.800 	0.000
102.5900 	28.4500 	0.000 	0.000 	-10.300 	33.800 	0.000
102.5900 	28.5300 	0.000 	0.000 	-10.300 	33.800 	0.000
102.6700 	26.6900 	0.000 	0.000 	-10.300 	33.800 	0.000
102.6700 	26.7700 	0.000 	0.000 	-10.300 	33.800 	0.000
102.6700 	26.8500 	0.000 	0.000 	-10.300 	33.800 	0.000
102.6700 	26.9300 	0.000 	0.000 	-10.300 	33.800 	0.000
102.6700 	27.0100 	0.000 	0.000 	-10.300 	33.800 	0.000
102.6700 	27.0900 	0.000 	0.000 	-10.300 	33.800 	0.000
102.6700 	27.1700 	0.000 	0.000 	-10.300 	33.800 	0.000
102.6700 	27.2500 	0.000 	0.000 	-10.300 	33.800 	0.000
102.6700 	27.3300 	0.000 	0.000 	-10.300 	33.800 	0.000
102.6700 	27.4100 	0.000 	0.000 	-10.300 	33.800 	0.000
102.6700 	27.4900 	0.000 	0.000 	-10.300 	33.800 	0.000
102.6700 	27.5700 	0.000 	0.000 	-10.300 	33.800 	0.000
102.6700 	27.6500 	0.000 	0.000 	-10.300 	33.800 	0.000
102.6700 	27.7300 	0.000 	0.000 	-10.300 	33.800 	0.000
102.6700 	27.8100 	0.000 	0.000 	-10.300 	33.800 	0.000
102.6700 	27.8900 	0.000 	0.000 	-10.300 	33.800 	0.000
102.6700 	27.9700 	0.000 	0.000 	-10.300 	33.800 	0.000
102.6700 	28.0500 	0.000 	0.000 	-10.300 	33.800 	0.000
102.6700 	28.1300 	0.000 	0.000 	-10.300 	33.800 	0.000
102.6700 	28.2100 	0.000 	0.000 	-10.300 	33.800 	0.000
102.6700 	28.2900 	0.000 	0.000 	-10.300 	33.800 	0.000
102.7500 	26.7700 	0.000 	0.000 	-10.300 	33.800 	0.000
102.7500 	26.8500 	0.000 	0.000 	-10.300 	33.800 	0.000
102.7500 	26.9300 	0.000 	0.000 	-10.300 	33.800 	0.000
102.7500 	27.0100 	0.000 	0.000 	-10.300 	33.800 	0.000
102.7500 	27.0900 	0.000 	0.000 	-10.300 	33.800 	0.000
102.7500 	27.1700 	0.000 	0.000 	-10.300 	33.800 	0.000
102.7500 	27.2500 	0.000 	0.000 	-10.300 	33.800 	0.000
102.7500 	27.3300 	0.000 	0.000 	-10.300 	33.800 	0.000
102.7500 	27.4100 	0.000 	0.000 	-10.300 	33.800 	0.000
102.7500 	27.4900 	0.000 	0.000 	-10.300 	33.800 	0.000
102.7500 	27.5700 	0.000 	0.000 	-10.300 	33.800 	0.000
102.7500 	27.6500 	0.000 	0.000 	-10.300 	33.800 	0.000
102.7500 	27.7300 	0.000 	0.000 	-10.300 	33.800 	0.000
102.7500 	27.8100 	0.000 	0.000 	-10.300 	33.800 	0.000
102.7500 	27.8900 	0.000 	0.000 	-10.300 	33.800 	0.000
102.7500 	27.9700 	0.000 	0.000 	-10.300 	33.800 	0.000
102.7500 	28.0500 	0.000 	0.000 	-10.300 	33.800 	0.000
102.7500 	28.1300 	0.000 	0.000 	-10.300 	33.800 	0.000
102.8300 	26.9300 	0.000 	0.000 	-10.300 	33.800 	0.000
102.8300 	27.0100 	0.000 	0.000 	-10.300 	33.800 	0.000
102.8300 	27.0900 	0.000 	0.000 	-10.300 	33.800 	0.000
102.8300 	27.1700 	0.000 	0.000 	-10.300 	33.800 	0.000
102.8300 	27.2500 	0.000 	0.000 	-10.300 	33.800 	0.000
102.8300 	27.3300 	0.000 	0.000 	-10.300 	33.800 	0.000
102.8300 	27.4100 	0.000 	0.000 	-10.300 	33.800 	0.000
102.8300 	27.4900 	0.000 	0.000 	-10.300 	33.800 	0.000
102.8300 	27.5700 	0.000 	0.000 	-10.300 	33.800 	0.000
102.8300 	27.6500 	0.000 	0.000 	-10.300 	33.800 	0.000
102.8300 	27.7300 	0.000 	0.000 	-10.300 	33.800 	0.000
102.8300 	27.8100 	0.000 	0.000 	-10.300 	33.800 	0.000
102.8300 	27.8900 	0.000 	0.000 	-10.300 	33.800 	0.000
102.8300 	27.9700 	0.000 	0.000 	-10.300 	33.800 	0.000
102.9100 	27.0900 	0.000 	0.000 	-10.300 	33.800 	0.000
102.9100 	27.1700 	0.000 	0.000 	-10.300 	33.800 	0.000
102.9100 	27.2500 	0.000 	0.000 	-10.300 	33.800 	0.000
102.9100 	27.3300 	0.000 	0.000 	-10.300 	33.800 	0.000
102.9100 	27.4100 	0.000 	0.000 	-10.300 	33.800 	0.000
102.9100 	27.4900 	0.000 	0.000 	-10.300 	33.800 	0.000
102.9100 	27.5700 	0.000 	0.000 	-10.300 	33.800 	0.000
102.9100 	27.6500 	0.000 	0.000 	-10.300 	33.800 	0.000
102.9100 	27.7300 	0.000 	0.000 	-10.300 	33.800 	0.000
102.9900 	27.1700 	0.000 	0.000 	-10.300 	33.800 	0.000
102.9900 	27.2500 	0.000 	0.000 	-10.300 	33.800 	0.000
102.9900 	27.3300 	0.000 	0.000 	-10.300 	33.800 	0.000
102.9900 	27.4100 	0.000 	0.000 	-10.300 	33.800 	0.000
102.9900 	27.4900 	0.000 	0.000 	-10.300 	33.800 	0.000
102.9900 	27.5700 	0.000 	0.000 	-10.300 	33.800 	0.000
103.0700 	27.3300 	0.000 	0.000 	-10.300 	33.800 	0.000
103.0700 	27.4100 	0.000 	0.000 	-10.300 	33.800 	0.000
100.9900 	23.6500 	0.000 	0.000 	-169.800 	33.800 	0.000
100.9900 	23.7300 	0.000 	0.000 	-169.800 	33.800 	0.000
100.9900 	23.8100 	0.000 	0.000 	-169.800 	33.800 	0.000
100.9900 	23.8900 	0.000 	0.000 	-169.800 	33.800 	0.000
100.9900 	23.9700 	0.000 	0.000 	-169.800 	33.800 	0.000
100.9900 	24.0500 	0.000 	0.000 	-169.800 	33.800 	0.000
100.9900 	24.1300 	0.000 	0.000 	-169.800 	33.800 	0.000
100.9900 	24.2100 	0.000 	0.000 	-169.800 	33.800 	0.000
100.9900 	24.2900 	0.000 	0.000 	-169.800 	33.800 	0.000
100.9900 	24.3700 	0.000 	0.000 	-169.800 	33.800 	0.000
100.9900 	24.4500 	0.000 	0.000 	-169.800 	33.800 	0.000
100.9900 	24.5300 	0.000 	0.000 	-169.800 	33.800 	0.000
100.9900 	24.6100 	0.000 	0.000 	-169.800 	33.800 	0.000
100.9900 	24.6900 	0.000 	0.000 	-169.800 	33.800 	0.000
100.9900 	24.7700 	0.000 	0.000 	-169.800 	33.800 	0.000
100.9900 	24.8500 	0.000 	0.000 	-169.800 	33.800 	0.000
100.9900 	24.9300 	0.000 	0.000 	-169.800 	33.800 	0.000
100.9900 	25.0100 	0.000 	0.000 	-169.800 	33.800 	0.000
100.9900 	25.0900 	0.000 	0.000 	-169.800 	33.800 	0.000
100.9900 	25.1700 	0.000 	0.000 	-169.800 	33.800 	0.000
100.9900 	25.2500 	0.000 	0.000 	-169.800 	33.800 	0.000
100.9900 	25.3300 	0.000 	0.000 	-169.800 	33.800 	0.000
100.9900 	25.4100 	0.000 	0.000 	-169.800 	33.800 	0.000
100.9900 	25.4900 	0.000 	0.000 	-169.800 	33.800 	0.000
100.9900 	25.5700 	0.000 	0.000 	-169.800 	33.800 	0.000
100.9900 	25.6500 	0.000 	0.000 	-169.800 	33.800 	0.000
100.9900 	25.7300 	0.000 	0.000 	-169.800 	33.800 	0.000
100.9900 	25.8100 	0.000 	0.000 	-169.800 	33.800 	0.000
100.9900 	25.8900 	0.000 	0.000 	-169.800 	33.800 	0.000
100.9900 	25.9700 	0.000 	0.000 	-169.800 	33.800 	0.000
100.9900 	26.0500 	0.000 	0.000 	-169.800 	33.800 	0.000
100.9900 	26.1300 	0.000 	0.000 	-169.800 	33.800 	0.000
100.9900 	26.2100 	0.000 	0.000 	-169.800 	33.800 	0.000
100.9900 	26.2900 	0.000 	0.000 	-169.800 	33.800 	0.000
100.9900 	26.3700 	0.000 	0.000 	-169.800 	33.800 	0.000
100.9900 	26.4500 	0.000 	0.000 	-169.800 	33.800 	0.000
100.9900 	26.5300 	0.000 	0.000 	-169.800 	33.800 	0.000
100.9900 	26.6100 	0.000 	0.000 	-169.800 	33.800 	0.000
100.9900 	26.6900 	0.000 	0.000 	-169.800 	33.800 	0.000
100.9900 	26.7700 	0.000 	0.000 	-169.800 	33.800 	0.000
100.9900 	26.8500 	0.000 	0.000 	-169.800 	33.800 	0.000
100.9900 	26.9300 	0.000 	0.000 	-169.800 	33.800 	0.000
100.9900 	27.0100 	0.000 	0.000 	-169.800 	33.800 	0.000
100.9900 	27.0900 	0.000 	0.000 	-169.800 	33.800 	0.000
100.9900 	27.1700 	0.000 	0.000 	-169.800 	33.800 	0.000
100.9900 	27.2500 	0.000 	0.000 	-169.800 	33.800 	0.000
100.9900 	27.3300 	0.000 	0.000 	-169.800 	33.800 	0.000
100.9900 	27.4100 	0.000 	0.000 	-169.800 	33.800 	0.000
100.9900 	27.4900 	0.000 	0.000 	-169.800 	33.800 	0.000
100.9900 	27.5700 	0.000 	0.000 	-169.800 	33.800 	0.000
100.9900 	27.6500 	0.000 	0.000 	-169.800 	33.800 	0.000
100.9900 	27.7300 	0.000 	0.000 	-169.800 	33.800 	0.000
100.9900 	27.8100 	0.000 	0.000 	-169.800 	33.800 	0.000
100.9900 	27.8900 	0.000 	0.000 	-169.800 	33.800 	0.000
100.9900 	27.9700 	0.000 	0.000 	-169.800 	33.800 	0.000
100.9900 	28.0500 	0.000 	0.000 	-169.800 	33.800 	0.000
100.9900 	28.1300 	0.000 	0.000 	-169.800 	33.800 	0.000
100.9900 	28.2100 	0.000 	0.000 	-169.800 	33.800 	0.000
100.9900 	28.2900 	0.000 	0.000 	-169.800 	33.800 	0.000
100.9900 	28.3700 	0.000 	0.000 	-169.800 	33.800 	0.000
100.9900 	28.4500 	0.000 	0.000 	-169.800 	33.800 	0.000
100.9900 	28.5300 	0.000 	0.000 	-169.800 	33.800 	0.000
100.9900 	28.6100 	0.000 	0.000 	-169.800 	33.800 	0.000
100.9900 	28.6900 	0.000 	0.000 	-169.800 	33.800 	0.000
100.9900 	28.7700 	0.000 	0.000 	-169.800 	33.800 	0.000
100.9900 	28.8500 	0.000 	0.000 	-169.800 	33.800 	0.000
100.9900 	28.9300 	0.000 	0.000 	-169.800 	33.800 	0.000
100.9900 	29.0100 	0.000 	0.000 	-169.800 	33.800 	0.000
100.9900 	29.0900 	0.000 	0.000 	-169.800 	33.800 	0.000
100.9900 	29.1700 	0.000 	0.000 	-169.800 	33.800 	0.000
101.0700 	23.6500 	0.000 	0.000 	-169.800 	33.800 	0.000
101.0700 	23.7300 	0.000 	0.000 	-169.800 	33.800 	0.000
101.0700 	23.8100 	0.000 	0.000 	-169.800 	33.800 	0.000
101.0700 	23.8900 	0.000 	0.000 	-169.800 	33.800 	0.000
101.0700 	23.9700 	0.000 	0.000 	-169.800 	33.800 	0.000
101.0700 	24.0500 	0.000 	0.000 	-169.800 	33.800 	0.000
101.0700 	24.1300 	0.000 	0.000 	-169.800 	33.800 	0.000
101.0700 	24.2100 	0.000 	0.000 	-169.800 	33.800 	0.000
101.0700 	24.2900 	0.000 	0.000 	-169.800 	33.800 	0.000
101.0700 	24.3700 	0.000 	0.000 	-169.800 	33.800 	0.000
101.0700 	24.4500 	0.000 	0.000 	-169.800 	33.800 	0.000
101.0700 	24.5300 	0.000 	0.000 	-169.800 	33.800 	0.000
101.0700 	24.6100 	0.000 	0.000 	-169.800 	33.800 	0.000
101.0700 	24.6900 	0.000 	0.000 	-169.800 	33.800 	0.000
101.0700 	24.7700 	0.000 	0.000 	-169.800 	33.800 	0.000
101.0700 	24.8500 	0.000 	0.000 	-169.800 	33.800 	0.000
101.0700 	24.9300 	0.000 	0.000 	-169.800 	33.800 	0.000
101.0700 	25.0100 	0.000 	0.000 	-169.800 	33.800 	0.000
101.0700 	25.0900 	0.000 	0.000 	-169.800 	33.800 	0.000
101.0700 	25.1700 	0.000 	0.000 	-169.800 	33.800 	0.000
101.0700 	25.2500 	0.000 	0.000 	-169.800 	33.800 	0.000
101.0700 	25.3300 	0.000 	0.000 	-169.800 	33.800 	0.000
101.0700 	25.4100 	0.000 	0.000 	-169.800 	33.800 	0.000
101.0700 	25.4900 	0.000 	0.000 	-169.800 	33.800 	0.000
101.0700 	25.5700 	0.000 	0.000 	-169.800 	33.800 	0.000
101.0700 	25.6500 	0.000 	0.000 	-169.800 	33.800 	0.000
101.0700 	25.7300 	0.000 	0.000 	-169.800 	33.800 	0.000
101.0700 	25.8100 	0.000 	0.000 	-169.800 	33.800 	0.000
101.0700 	25.8900 	0.000 	0.000 	-169.800 	33.800 	0.000
101.0700 	25.9700 	0.000 	0.000 	-169.800 	33.800 	0.000
101.0700 	26.0500 	0.000 	0.000 	-169.800 	33.800 	0.000
101.0700 	26.1300 	0.000 	0.000 	-169.800 	33.800 	0.000
101.0700 	26.2100 	0.000 	0.000 	-169.800 	33.800 	0.000
101.0700 	26.2900 	0.000 	0.000 	-169.800 	33.800 	0.000
101.0700 	26.3700 	0.000 	0.000 	-169.800 	33.800 	0.000
101.0700 	26.4500 	0.000 	0.000 	-169.800 	33.800 	0.000
101.0700 	26.5300 	0.000 	0.000 	-169.800 	33.800 	0.000
101.0700 	26.6100 	0.000 	0.000 	-169.800 	33.800 	0.000
101.0700 	26.6900 	0.000 	0.000 	-169.800 	33.800 	0.000
101.0700 	26.7700 	0.000 	0.000 	-169.800 	33.800 	0.000
101.0700 	26.8500 	0.000 	0.000 	-169.800 	33.800 	0.000
101.0700 	26.9300 	0.000 	0.000 	-169.800 	33.800 	0.000
101.0700 	27.0100 	0.000 	0.000 	-169.800 	33.800 	0.000
101.0700 	27.0900 	0.000 	0.000 	-169.800 	33.800 	0.000
101.0700 	27.1700 	0.000 	0.000 	-169.800 	33.800 	0.000
101.0700 	27.2500 	0.000 	0.000 	-169.800 	33.800 	0.000
101.0700 	27.3300 	0.000 	0.000 	-169.800 	33.800 	0.000
101.0700 	27.4100 	0.000 	0.000 	-169.800 	33.800 	0.000
101.0700 	27.4900 	0.000 	0.000 	-169.800 	33.800 	0.000
101.0700 	27.5700 	0.000 	0.000 	-169.800 	33.800 	0.000
101.0700 	27.6500 	0.000 	0.000 	-169.800 	33.800 	0.000
101.0700 	27.7300 	0.000 	0.000 	-169.800 	33.800 	0.000
101.0700 	27.8100 	0.000 	0.000 	-169.800 	33.800 	0.000
101.0700 	27.8900 	0.000 	0.000 	-169.800 	33.800 	0.000
101.0700 	27.9700 	0.000 	0.000 	-169.800 	33.800 	0.000
101.0700 	28.0500 	0.000 	0.000 	-169.800 	33.800 	0.000
101.0700 	28.1300 	0.000 	0.000 	-169.800 	33.800 	0.000
101.0700 	28.2100 	0.000 	0.000 	-169.800 	33.800 	0.000
101.0700 	28.2900 	0.000 	0.000 	-169.800 	33.800 	0.000
101.0700 	28.3700 	0.000 	0.000 	-169.800 	33.800 	0.000
101.0700 	28.4500 	0.000 	0.000 	-169.800 	33.800 	0.000
101.0700 	28.5300 	0.000 	0.000 	-169.800 	33.800 	0.000
101.0700 	28.6100 	0.000 	0.000 	-169.800 	33.800 	0.000
101.0700 	28.6900 	0.000 	0.000 	-169.800 	33.800 	0.000
101.0700 	28.7700 	0.000 	0.000 	-169.800 	33.800 	0.000
101.0700 	28.8500 	0.000 	0.000 	-169.800 	33.800 	0.000
101.0700 	28.9300 	0.000 	0.000 	-169.800 	33.800 	0.000
101.0700 	29.0100 	0.000 	0.000 	-169.800 	33.800 	0.000
101.0700 	29.0900 	0.000 	0.000 	-169.800 	33.800 	0.000
101.0700 	29.1700 	0.000 	0.000 	-169.800 	33.800 	0.000
101.1500 	23.6500 	0.000 	0.000 	-169.800 	33.800 	0.000
101.1500 	23.7300 	0.000 	0.000 	-169.800 	33.800 	0.000
101.1500 	23.8100 	0.000 	0.000 	-169.800 	33.800 	0.000
101.1500 	23.8900 	0.000 	0.000 	-169.800 	33.800 	0.000
101.1500 	23.9700 	0.000 	0.000 	-169.800 	33.800 	0.000
101.1500 	24.0500 	0.000 	0.000 	-169.800 	33.800 	0.000
101.1500 	24.1300 	0.000 	0.000 	-169.800 	33.800 	0.000
101.1500 	24.2100 	0.000 	0.000 	-169.800 	33.800 	0.000
101.1500 	24.2900 	0.000 	0.000 	-169.800 	33.800 	0.000
101.1500 	24.3700 	0.000 	0.000 	-169.800 	33.800 	0.000
101.1500 	24.4500 	0.000 	0.000 	-169.800 	33.800 	0.000
101.1500 	24.5300 	0.000 	0.000 	-169.800 	33.800 	0.000
101.1500 	24.6100 	0.000 	0.000 	-169.800 	33.800 	0.000
101.1500 	24.6900 	0.000 	0.000 	-169.800 	33.800 	0.000
101.1500 	24.7700 	0.000 	0.000 	-169.800 	33.800 	0.000
101.1500 	24.8500 	0.000 	0.000 	-169.800 	33.800 	0.000
101.1500 	24.9300 	0.000 	0.000 	-169.800 	33.800 	0.000
101.1500 	25.0100 	0.000 	0.000 	-169.800 	33.800 	0.000
101.1500 	25.0900 	0.000 	0.000 	-169.800 	33.800 	0.000
101.1500 	25.1700 	0.000 	0.000 	-169.800 	33.800 	0.000
101.1500 	25.2500 	0.000 	0.000 	-169.800 	33.800 	0.000
101.1500 	25.3300 	0.000 	0.000 	-169.800 	33.800 	0.000
101.1500 	25.4100 	0.000 	0.000 	-169.800 	33.800 	0.000
101.1500 	25.4900 	0.000 	0.000 	-169.800 	33.800 	0.000
101.1500 	25.5700 	0.000 	0.000 	-169.800 	33.800 	0.000
101.1500 	25.6500 	0.000 	0.000 	-169.800 	33.800 	0.000
101.1500 	25.7300 	0.000 	0.000 	-169.800 	33.800 	0.000
101.1500 	25.8100 	0.000 	0.000 	-169.800 	33.800 	0.000
101.1500 	25.8900 	0.000 	0.000 	-169.800 	33.800 	0.000
101.1500 	25.9700 	0.000 	0.000 	-169.800 	33.800 	0.000
101.1500 	26.0500 	0.000 	0.000 	-169.800 	33.800 	0.000
101.1500 	26.1300 	0.000 	0.000 	-169.800 	33.800 	0.000
101.1500 	26.2100 	0.000 	0.000 	-169.800 	33.800 	0.000
101.1500 	26.2900 	0.000 	0.000 	-169.800 	33.800 	0.000
101.1500 	26.3700 	0.000 	0.000 	-169.800 	33.800 	0.000
101.1500 	26.4500 	0.000 	0.000 	-169.800 	33.800 	0.000
101.1500 	26.5300 	0.000 	0.000 	-169.800 	33.800 	0.000
101.1500 	26.6100 	0.000 	0.000 	-169.800 	33.800 	0.000
101.1500 	26.6900 	0.000 	0.000 	-169.800 	33.800 	0.000
101.1500 	26.7700 	0.000 	0.000 	-169.800 	33.800 	0.000
101.1500 	26.8500 	0.000 	0.000 	-169.800 	33.800 	0.000
101.1500 	26.9300 	0.000 	0.000 	-169.800 	33.800 	0.000
101.1500 	27.0100 	0.000 	0.000 	-169.800 	33.800 	0.000
101.1500 	27.0900 	0.000 	0.000 	-169.800 	33.800 	0.000
101.1500 	27.1700 	0.000 	0.000 	-169.800 	33.800 	0.000
101.1500 	27.2500 	0.000 	0.000 	-169.800 	33.800 	0.000
101.1500 	27.3300 	0.000 	0.000 	-169.800 	33.800 	0.000
101.1500 	27.4100 	0.000 	0.000 	-169.800 	33.800 	0.000
101.1500 	27.4900 	0.000 	0.000 	-169.800 	33.800 	0.000
101.1500 	27.5700 	0.000 	0.000 	-169.800 	33.800 	0.000
101.1500 	27.6500 	0.000 	0.000 	-169.800 	33.800 	0.000
101.1500 	27.7300 	0.000 	0.000 	-169.800 	33.800 	0.000
101.1500 	27.8100 	0.000 	0.000 	-169.800 	33.800 	0.000
101.1500 	27.8900 	0.000 	0.000 	-169.800 	33.800 	0.000
101.1500 	27.9700 	0.000 	0.000 	-169.800 	33.800 	0.000
101.1500 	28.0500 	0.000 	0.000 	-169.800 	33.800 	0.000
101.1500 	28.1300 	0.000 	0.000 	-169.800 	33.800 	0.000
101.1500 	28.2100 	0.000 	0.000 	-169.800 	33.800 	0.000
101.1500 	28.2900 	0.000 	0.000 	-169.800 	33.800 	0.000
101.1500 	28.3700 	0.000 	0.000 	-169.800 	33.800 	0.000
101.1500 	28.4500 	0.000 	0.000 	-169.800 	33.800 	0.000
101.1500 	28.5300 	0.000 	0.000 	-169.800 	33.800 	0.000
101.1500 	28.6100 	0.000 	0.000 	-169.800 	33.800 	0.000
101.1500 	28.6900 	0.000 	0.000 	-169.800 	33.800 	0.000
101.1500 	28.7700 	0.000 	0.000 	-169.800 	33.800 	0.000
101.1500 	28.8500 	0.000 	0.000 	-169.800 	33.800 	0.000
101.1500 	28.9300 	0.000 	0.000 	-169.800 	33.800 	0.000
101.1500 	29.0100 	0.000 	0.000 	-169.800 	33.800 	0.000
101.1500 	29.0900 	0.000 	0.000 	-169.800 	33.800 	0.000
101.1500 	29.1700 	0.000 	0.000 	-169.800 	33.800 	0.000
101.2300 	23.6500 	0.000 	0.000 	-169.800 	33.800 	0.000
101.2300 	23.7300 	0.000 	0.000 	-169.800 	33.800 	0.000
101.2300 	23.8100 	0.000 	0.000 	-169.800 	33.800 	0.000
101.2300 	23.8900 	0.000 	0.000 	-169.800 	33.800 	0.000
101.2300 	23.9700 	0.000 	0.000 	-169.800 	33.800 	0.000
101.2300 	24.0500 	0.000 	0.000 	-169.800 	33.800 	0.000
101.2300 	24.1300 	0.000 	0.000 	-169.800 	33.800 	0.000
101.2300 	24.2100 	0.000 	0.000 	-169.800 	33.800 	0.000
101.2300 	24.2900 	0.000 	0.000 	-169.800 	33.800 	0.000
101.2300 	24.3700 	0.000 	0.000 	-169.800 	33.800 	0.000
101.2300 	24.4500 	0.000 	0.000 	-169.800 	33.800 	0.000
101.2300 	24.5300 	0.000 	0.000 	-169.800 	33.800 	0.000
101.2300 	24.6100 	0.000 	0.000 	-169.800 	33.800 	0.000
101.2300 	24.6900 	0.000 	0.000 	-169.800 	33.800 	0.000
101.2300 	24.7700 	0.000 	0.000 	-169.800 	33.800 	0.000
101.2300 	24.8500 	0.000 	0.000 	-169.800 	33.800 	0.000
101.2300 	24.9300 	0.000 	0.000 	-169.800 	33.800 	0.000
101.2300 	25.0100 	0.000 	0.000 	-169.800 	33.800 	0.000
101.2300 	25.0900 	0.000 	0.000 	-169.800 	33.800 	0.000
101.2300 	25.1700 	0.000 	0.000 	-169.800 	33.800 	0.000
101.2300 	25.2500 	0.000 	0.000 	-169.800 	33.800 	0.000
101.2300 	25.3300 	0.000 	0.000 	-169.800 	33.800 	0.000
101.2300 	25.4100 	0.000 	0.000 	-169.800 	33.800 	0.000
101.2300 	25.4900 	0.000 	0.000 	-169.800 	33.800 	0.000
101.2300 	25.5700 	0.000 	0.000 	-169.800 	33.800 	0.000
101.2300 	25.6500 	0.000 	0.000 	-169.800 	33.800 	0.000
101.2300 	25.7300 	0.000 	0.000 	-169.800 	33.800 	0.000
101.2300 	25.8100 	0.000 	0.000 	-169.800 	33.800 	0.000
101.2300 	25.8900 	0.000 	0.000 	-169.800 	33.800 	0.000
101.2300 	25.9700 	0.000 	0.000 	-169.800 	33.800 	0.000
101.2300 	26.0500 	0.000 	0.000 	-169.800 	33.800 	0.000
101.2300 	26.1300 	0.000 	0.000 	-169.800 	33.800 	0.000
101.2300 	26.2100 	0.000 	0.000 	-169.800 	33.800 	0.000
101.2300 	26.2900 	0.000 	0.000 	-169.800 	33.800 	0.000
101.2300 	26.3700 	0.000 	0.000 	-169.800 	33.800 	0.000
101.2300 	26.4500 	0.000 	0.000 	-169.800 	33.800 	0.000
101.2300 	26.5300 	0.000 	0.000 	-169.800 	33.800 	0.000
101.2300 	26.6100 	0.000 	0.000 	-169.800 	33.800 	0.000
101.2300 	26.6900 	0.000 	0.000 	-169.800 	33.800 	0.000
101.2300 	26.7700 	0.000 	0.000 	-169.800 	33.800 	0.000
101.2300 	26.8500 	0.000 	0.000 	-169.800 	33.800 	0.000
101.2300 	26.9300 	0.000 	0.000 	-169.800 	33.800 	0.000
101.2300 	27.0100 	0.000 	0.000 	-169.800 	33.800 	0.000
101.2300 	27.0900 	0.000 	0.000 	-169.800 	33.800 	0.000
101.2300 	27.1700 	0.000 	0.000 	-169.800 	33.800 	0.000
101.2300 	27.2500 	0.000 	0.000 	-169.800 	33.800 	0.000
101.2300 	27.3300 	0.000 	0.000 	-169.800 	33.800 	0.000
101.2300 	27.4100 	0.000 	0.000 	-169.800 	33.800 	0.000
101.2300 	27.4900 	0.000 	0.000 	-169.800 	33.800 	0.000
101.2300 	27.5700 	0.000 	0.000 	-169.800 	33.800 	0.000
101.2300 	27.6500 	0.000 	0.000 	-169.800 	33.800 	0.000
101.2300 	27.7300 	0.000 	0.000 	-169.800 	33.800 	0.000
101.2300 	27.8100 	0.000 	0.000 	-169.800 	33.800 	0.000
101.2300 	27.8900 	0.000 	0.000 	-169.800 	33.800 	0.000
101.2300 	27.9700 	0.000 	0.000 	-169.800 	33.800 	0.000
101.2300 	28.0500 	0.000 	0.000 	-169.800 	33.800 	0.000
101.2300 	28.1300 	0.000 	0.000 	-169.800 	33.800 	0.000
101.2300 	28.2100 	0.000 	0.000 	-169.800 	33.800 	0.000
101.2300 	28.2900 	0.000 	0.000 	-169.800 	33.800 	0.000
101.2300 	28.3700 	0.000 	0.000 	-169.800 	33.800 	0.000
101.2300 	28.4500 	0.000 	0.000 	-169.800 	33.800 	0.000
101.2300 	28.5300 	0.000 	0.000 	-169.800 	33.800 	0.000
101.2300 	28.6100 	0.000 	0.000 	-169.800 	33.800 	0.000
101.2300 	28.6900 	0.000 	0.000 	-169.800 	33.800 	0.000
101.2300 	28.7700 	0.000 	0.000 	-169.800 	33.800 	0.000
101.2300 	28.8500 	0.000 	0.000 	-169.800 	33.800 	0.000
101.2300 	28.9300 	0.000 	0.000 	-169.800 	33.800 	0.000
101.2300 	29.0100 	0.000 	0.000 	-169.800 	33.800 	0.000
101.2300 	29.0900 	0.000 	0.000 	-169.800 	33.800 	0.000
101.2300 	29.1700 	0.000 	0.000 	-169.800 	33.800 	0.000
101.3100 	23.6500 	0.000 	0.000 	-169.800 	33.800 	0.000
101.3100 	23.7300 	0.000 	0.000 	-169.800 	33.800 	0.000
101.3100 	23.8100 	0.000 	0.000 	-169.800 	33.800 	0.000
101.3100 	23.8900 	0.000 	0.000 	-169.800 	33.800 	0.000
101.3100 	23.9700 	0.000 	0.000 	-169.800 	33.800 	0.000
101.3100 	24.0500 	0.000 	0.000 	-169.800 	33.800 	0.000
101.3100 	24.1300 	0.000 	0.000 	-169.800 	33.800 	0.000
101.3100 	24.2100 	0.000 	0.000 	-169.800 	33.800 	0.000
101.3100 	24.2900 	0.000 	0.000 	-169.800 	33.800 	0.000
101.3100 	24.3700 	0.000 	0.000 	-169.800 	33.800 	0.000
101.3100 	24.4500 	0.000 	0.000 	-169.800 	33.800 	0.000
101.3100 	24.5300 	0.000 	0.000 	-169.800 	33.800 	0.000
101.3100 	24.6100 	0.000 	0.000 	-169.800 	33.800 	0.000
101.3100 	24.6900 	0.000 	0.000 	-169.800 	33.800 	0.000
101.3100 	24.7700 	0.000 	0.000 	-169.800 	33.800 	0.000
101.3100 	24.8500 	0.000 	0.000 	-169.800 	33.800 	0.000
101.3100 	24.9300 	0.000 	0.000 	-169.800 	33.800 	0.000
101.3100 	25.0100 	0.000 	0.000 	-169.800 	33.800 	0.000
101.3100 	25.0900 	0.000 	0.000 	-169.800 	33.800 	0.000
101.3100 	25.1700 	0.000 	0.000 	-169.800 	33.800 	0.000
101.3100 	25.2500 	0.000 	0.000 	-169.800 	33.800 	0.000
101.3100 	25.3300 	0.000 	0.000 	-169.800 	33.800 	0.000
101.3100 	25.4100 	0.000 	0.000 	-169.800 	33.800 	0.000
101.3100 	25.4900 	0.000 	0.000 	-169.800 	33.800 	0.000
101.3100 	25.5700 	0.000 	0.000 	-169.800 	33.800 	0.000
101.3100 	25.6500 	0.000 	0.000 	-169.800 	33.800 	0.000
101.3100 	25.7300 	0.000 	0.000 	-169.800 	33.800 	0.000
101.3100 	25.8100 	0.000 	0.000 	-169.800 	33.800 	0.000
101.3100 	25.8900 	0.000 	0.000 	-169.800 	33.800 	0.000
101.3100 	25.9700 	0.000 	0.000 	-169.800 	33.800 	0.000
101.3100 	26.0500 	0.000 	0.000 	-169.800 	33.800 	0.000
101.3100 	26.1300 	0.000 	0.000 	-169.800 	33.800 	0.000
101.3100 	26.2100 	0.000 	0.000 	-169.800 	33.800 	0.000
101.3100 	26.2900 	0.000 	0.000 	-169.800 	33.800 	0.000
101.3100 	26.3700 	0.000 	0.000 	-169.800 	33.800 	0.000
101.3100 	26.4500 	0.000 	0.000 	-169.800 	33.800 	0.000
101.3100 	26.5300 	0.000 	0.000 	-169.800 	33.800 	0.000
101.3100 	26.6100 	0.000 	0.000 	-169.800 	33.800 	0.000
101.3100 	26.6900 	0.000 	0.000 	-169.800 	33.800 	0.000
101.3100 	26.7700 	0.000 	0.000 	-169.800 	33.800 	0.000
101.3100 	26.8500 	0.000 	0.000 	-169.800 	33.800 	0.000
101.3100 	26.9300 	0.000 	0.000 	-169.800 	33.800 	0.000
101.3100 	27.0100 	0.000 	0.000 	-169.800 	33.800 	0.000
101.3100 	27.0900 	0.000 	0.000 	-169.800 	33.800 	0.000
101.3100 	27.1700 	0.000 	0.000 	-169.800 	33.800 	0.000
101.3100 	27.2500 	0.000 	0.000 	-169.800 	33.800 	0.000
101.3100 	27.3300 	0.000 	0.000 	-169.800 	33.800 	0.000
101.3100 	27.4100 	0.000 	0.000 	-169.800 	33.800 	0.000
101.3100 	27.4900 	0.000 	0.000 	-169.800 	33.800 	0.000
101.3100 	27.5700 	0.000 	0.000 	-169.800 	33.800 	0.000
101.3100 	27.6500 	0.000 	0.000 	-169.800 	33.800 	0.000
101.3100 	27.7300 	0.000 	0.000 	-169.800 	33.800 	0.000
101.3100 	27.8100 	0.000 	0.000 	-169.800 	33.800 	0.000
101.3100 	27.8900 	0.000 	0.000 	-169.800 	33.800 	0.000
101.3100 	27.9700 	0.000 	0.000 	-169.800 	33.800 	0.000
101.3100 	28.0500 	0.000 	0.000 	-169.800 	33.800 	0.000
101.3100 	28.1300 	0.000 	0.000 	-169.800 	33.800 	0.000
101.3100 	28.2100 	0.000 	0.000 	-169.800 	33.800 	0.000
101.3100 	28.2900 	0.000 	0.000 	-169.800 	33.800 	0.000
101.3100 	28.3700 	0.000 	0.000 	-169.800 	33.800 	0.000
101.3100 	28.4500 	0.000 	0.000 	-169.800 	33.800 	0.000
101.3100 	28.5300 	0.000 	0.000 	-169.800 	33.800 	0.000
101.3100 	28.6100 	0.000 	0.000 	-169.800 	33.800 	0.000
101.3100 	28.6900 	0.000 	0.000 	-169.800 	33.800 	0.000
101.3100 	28.7700 	0.000 	0.000 	-169.800 	33.800 	0.000
101.3100 	28.8500 	0.000 	0.000 	-169.800 	33.800 	0.000
101.3100 	28.9300 	0.000 	0.000 	-169.800 	33.800 	0.000
101.3100 	29.0100 	0.000 	0.000 	-169.800 	33.800 	0.000
101.3100 	29.0900 	0.000 	0.000 	-169.800 	33.800 	0.000
101.3100 	29.1700 	0.000 	0.000 	-169.800 	33.800 	0.000
101.3900 	23.6500 	0.000 	0.000 	-169.800 	33.800 	0.000
101.3900 	23.7300 	0.000 	0.000 	-169.800 	33.800 	0.000
101.3900 	23.8100 	0.000 	0.000 	-169.800 	33.800 	0.000
101.3900 	23.8900 	0.000 	0.000 	-169.800 	33.800 	0.000
101.3900 	23.9700 	0.000 	0.000 	-169.800 	33.800 	0.000
101.3900 	24.0500 	0.000 	0.000 	-169.800 	33.800 	0.000
101.3900 	24.1300 	0.000 	0.000 	-169.800 	33.800 	0.000
101.3900 	24.2100 	0.000 	0.000 	-169.800 	33.800 	0.000
101.3900 	24.2900 	0.000 	0.000 	-169.800 	33.800 	0.000
101.3900 	24.3700 	0.000 	0.000 	-169.800 	33.800 	0.000
101.3900 	24.4500 	0.000 	0.000 	-169.800 	33.800 	0.000
101.3900 	24.5300 	0.000 	0.000 	-169.800 	33.800 	0.000
101.3900 	24.6100 	0.000 	0.000 	-169.800 	33.800 	0.000
101.3900 	24.6900 	0.000 	0.000 	-169.800 	33.800 	0.000
101.3900 	24.7700 	0.000 	0.000 	-169.800 	33.800 	0.000
101.3900 	24.8500 	0.000 	0.000 	-169.800 	33.800 	0.000
101.3900 	24.9300 	0.000 	0.000 	-169.800 	33.800 	0.000
101.3900 	25.0100 	0.000 	0.000 	-169.800 	33.800 	0.000
101.3900 	25.0900 	0.000 	0.000 	-169.800 	33.800 	0.000
101.3900 	25.1700 	0.000 	0.000 	-169.800 	33.800 	0.000
101.3900 	25.2500 	0.000 	0.000 	-169.800 	33.800 	0.000
101.3900 	25.3300 	0.000 	0.000 	-169.800 	33.800 	0.000
101.3900 	25.4100 	0.000 	0.000 	-169.800 	33.800 	0.000
101.3900 	25.4900 	0.000 	0.000 	-169.800 	33.800 	0.000
101.3900 	25.5700 	0.000 	0.000 	-169.800 	33.800 	0.000
101.3900 	25.6500 	0.000 	0.000 	-169.800 	33.800 	0.000
101.3900 	25.7300 	0.000 	0.000 	-169.800 	33.800 	0.000
101.3900 	25.8100 	0.000 	0.000 	-169.800 	33.800 	0.000
101.3900 	25.8900 	0.000 	0.000 	-169.800 	33.800 	0.000
101.3900 	25.9700 	0.000 	0.000 	-169.800 	33.800 	0.000
101.3900 	26.0500 	0.000 	0.000 	-169.800 	33.800 	0.000
101.3900 	26.1300 	0.000 	0.000 	-169.800 	33.800 	0.000
101.3900 	26.2100 	0.000 	0.000 	-169.800 	33.800 	0.000
101.3900 	26.2900 	0.000 	0.000 	-169.800 	33.800 	0.000
101.3900 	26.3700 	0.000 	0.000 	-169.800 	33.800 	0.000
101.3900 	26.4500 	0.000 	0.000 	-169.800 	33.800 	0.000
101.3900 	26.5300 	0.000 	0.000 	-169.800 	33.800 	0.000
101.3900 	26.6100 	0.000 	0.000 	-169.800 	33.800 	0.000
101.3900 	26.6900 	0.000 	0.000 	-169.800 	33.800 	0.000
101.3900 	26.7700 	0.000 	0.000 	-169.800 	33.800 	0.000
101.3900 	26.8500 	0.000 	0.000 	-169.800 	33.800 	0.000
101.3900 	26.9300 	0.000 	0.000 	-169.800 	33.800 	0.000
101.3900 	27.0100 	0.000 	0.000 	-169.800 	33.800 	0.000
101.3900 	27.0900 	0.000 	0.000 	-169.800 	33.800 	0.000
101.3900 	27.1700 	0.000 	0.000 	-169.800 	33.800 	0.000
101.3900 	27.2500 	0.000 	0.000 	-169.800 	33.800 	0.000
101.3900 	27.3300 	0.000 	0.000 	-169.800 	33.800 	0.000
101.3900 	27.4100 	0.000 	0.000 	-169.800 	33.800 	0.000
101.3900 	27.4900 	0.000 	0.000 	-169.800 	33.800 	0.000
101.3900 	27.5700 	0.000 	0.000 	-169.800 	33.800 	0.000
101.3900 	27.6500 	0.000 	0.000 	-169.800 	33.800 	0.000
101.3900 	27.7300 	0.000 	0.000 	-169.800 	33.800 	0.000
101.3900 	27.8100 	0.000 	0.000 	-169.800 	33.800 	0.000
101.3900 	27.8900 	0.000 	0.000 	-169.800 	33.800 	0.000
101.3900 	27.9700 	0.000 	0.000 	-169.800 	33.800 	0.000
101.3900 	28.0500 	0.000 	0.000 	-169.800 	33.800 	0.000
101.3900 	28.1300 	0.000 	0.000 	-169.800 	33.800 	0.000
101.3900 	28.2100 	0.000 	0.000 	-169.800 	33.800 	0.000
101.3900 	28.2900 	0.000 	0.000 	-169.800 	33.800 	0.000
101.3900 	28.3700 	0.000 	0.000 	-169.800 	33.800 	0.000
101.3900 	28.4500 	0.000 	0.000 	-169.800 	33.800 	0.000
101.3900 	28.5300 	0.000 	0.000 	-169.800 	33.800 	0.000
101.3900 	28.6100 	0.000 	0.000 	-169.800 	33.800 	0.000
101.3900 	28.6900 	0.000 	0.000 	-169.800 	33.800 	0.000
101.3900 	28.7700 	0.000 	0.000 	-169.800 	33.800 	0.000
101.3900 	28.8500 	0.000 	0.000 	-169.800 	33.800 	0.000
101.3900 	28.9300 	0.000 	0.000 	-169.800 	33.800 	0.000
101.3900 	29.0100 	0.000 	0.000 	-169.800 	33.800 	0.000
101.3900 	29.0900 	0.000 	0.000 	-169.800 	33.800 	0.000
101.3900 	29.1700 	0.000 	0.000 	-169.800 	33.800 	0.000
101.4700 	23.6500 	0.000 	0.000 	-169.800 	33.800 	0.000
101.4700 	23.7300 	0.000 	0.000 	-169.800 	33.800 	0.000
101.4700 	23.8100 	0.000 	0.000 	-169.800 	33.800 	0.000
101.4700 	23.8900 	0.000 	0.000 	-169.800 	33.800 	0.000
101.4700 	23.9700 	0.000 	0.000 	-169.800 	33.800 	0.000
101.4700 	24.0500 	0.000 	0.000 	-169.800 	33.800 	0.000
101.4700 	24.1300 	0.000 	0.000 	-169.800 	33.800 	0.000
101.4700 	24.2100 	0.000 	0.000 	-169.800 	33.800 	0.000
101.4700 	24.2900 	0.000 	0.000 	-169.800 	33.800 	0.000
101.4700 	24.3700 	0.000 	0.000 	-169.800 	33.800 	0.000
101.4700 	24.4500 	0.000 	0.000 	-169.800 	33.800 	0.000
101.4700 	24.5300 	0.000 	0.000 	-169.800 	33.800 	0.000
101.4700 	24.6100 	0.000 	0.000 	-169.800 	33.800 	0.000
101.4700 	24.6900 	0.000 	0.000 	-169.800 	33.800 	0.000
101.4700 	24.7700 	0.000 	0.000 	-169.800 	33.800 	0.000
101.4700 	24.8500 	0.000 	0.000 	-169.800 	33.800 	0.000
101.4700 	24.9300 	0.000 	0.000 	-169.800 	33.800 	0.000
101.4700 	25.0100 	0.000 	0.000 	-169.800 	33.800 	0.000
101.4700 	25.0900 	0.000 	0.000 	-169.800 	33.800 	0.000
101.4700 	25.1700 	0.000 	0.000 	-169.800 	33.800 	0.000
101.4700 	25.2500 	0.000 	0.000 	-169.800 	33.800 	0.000
101.4700 	25.3300 	0.000 	0.000 	-169.800 	33.800 	0.000
101.4700 	25.4100 	0.000 	0.000 	-169.800 	33.800 	0.000
101.4700 	25.4900 	0.000 	0.000 	-169.800 	33.800 	0.000
101.4700 	25.5700 	0.000 	0.000 	-169.800 	33.800 	0.000
101.4700 	25.6500 	0.000 	0.000 	-169.800 	33.800 	0.000
101.4700 	25.7300 	0.000 	0.000 	-169.800 	33.800 	0.000
101.4700 	25.8100 	0.000 	0.000 	-169.800 	33.800 	0.000
101.4700 	25.8900 	0.000 	0.000 	-169.800 	33.800 	0.000
101.4700 	25.9700 	0.000 	0.000 	-169.800 	33.800 	0.000
101.4700 	26.0500 	0.000 	0.000 	-169.800 	33.800 	0.000
101.4700 	26.1300 	0.000 	0.000 	-169.800 	33.800 	0.000
101.4700 	26.2100 	0.000 	0.000 	-169.800 	33.800 	0.000
101.4700 	26.2900 	0.000 	0.000 	-169.800 	33.800 	0.000
101.4700 	26.3700 	0.000 	0.000 	-169.800 	33.800 	0.000
101.4700 	26.4500 	0.000 	0.000 	-169.800 	33.800 	0.000
101.4700 	26.5300 	0.000 	0.000 	-169.800 	33.800 	0.000
101.4700 	26.6100 	0.000 	0.000 	-169.800 	33.800 	0.000
101.4700 	26.6900 	0.000 	0.000 	-169.800 	33.800 	0.000
101.4700 	26.7700 	0.000 	0.000 	-169.800 	33.800 	0.000
101.4700 	26.8500 	0.000 	0.000 	-169.800 	33.800 	0.000
101.4700 	26.9300 	0.000 	0.000 	-169.800 	33.800 	0.000
101.4700 	27.0100 	0.000 	0.000 	-169.800 	33.800 	0.000
101.4700 	27.0900 	0.000 	0.000 	-169.800 	33.800 	0.000
101.4700 	27.1700 	0.000 	0.000 	-169.800 	33.800 	0.000
101.4700 	27.2500 	0.000 	0.000 	-169.800 	33.800 	0.000
101.4700 	27.3300 	0.000 	0.000 	-169.800 	33.800 	0.000
101.4700 	27.4100 	0.000 	0.000 	-169.800 	33.800 	0.000
101.4700 	27.4900 	0.000 	0.000 	-169.800 	33.800 	0.000
101.4700 	27.5700 	0.000 	0.000 	-169.800 	33.800 	0.000
101.4700 	27.6500 	0.000 	0.000 	-169.800 	33.800 	0.000
101.4700 	27.7300 	0.000 	0.000 	-169.800 	33.800 	0.000
101.4700 	27.8100 	0.000 	0.000 	-169.800 	33.800 	0.000
101.4700 	27.8900 	0.000 	0.000 	-169.800 	33.800 	0.000
101.4700 	27.9700 	0.000 	0.000 	-169.800 	33.800 	0.000
101.4700 	28.0500 	0.000 	0.000 	-169.800 	33.800 	0.000
101.4700 	28.1300 	0.000 	0.000 	-169.800 	33.800 	0.000
101.4700 	28.2100 	0.000 	0.000 	-169.800 	33.800 	0.000
101.4700 	28.2900 	0.000 	0.000 	-169.800 	33.800 	0.000
101.4700 	28.3700 	0.000 	0.000 	-169.800 	33.800 	0.000
101.4700 	28.4500 	0.000 	0.000 	-169.800 	33.800 	0.000
101.4700 	28.5300 	0.000 	0.000 	-169.800 	33.800 	0.000
101.4700 	28.6100 	0.000 	0.000 	-169.800 	33.800 	0.000
101.4700 	28.6900 	0.000 	0.000 	-169.800 	33.800 	0.000
101.4700 	28.7700 	0.000 	0.000 	-169.800 	33.800 	0.000
101.4700 	28.8500 	0.000 	0.000 	-169.800 	33.800 	0.000
101.4700 	28.9300 	0.000 	0.000 	-169.800 	33.800 	0.000
101.4700 	29.0100 	0.000 	0.000 	-169.800 	33.800 	0.000
101.4700 	29.0900 	0.000 	0.000 	-169.800 	33.800 	0.000
101.4700 	29.1700 	0.000 	0.000 	-169.800 	33.800 	0.000
101.5500 	23.6500 	0.000 	0.000 	-169.800 	33.800 	0.000
101.5500 	23.7300 	0.000 	0.000 	-169.800 	33.800 	0.000
101.5500 	23.8100 	0.000 	0.000 	-169.800 	33.800 	0.000
101.5500 	23.8900 	0.000 	0.000 	-169.800 	33.800 	0.000
101.5500 	23.9700 	0.000 	0.000 	-169.800 	33.800 	0.000
101.5500 	24.0500 	0.000 	0.000 	-169.800 	33.800 	0.000
101.5500 	24.1300 	0.000 	0.000 	-169.800 	33.800 	0.000
101.5500 	24.2100 	0.000 	0.000 	-169.800 	33.800 	0.000
101.5500 	24.2900 	0.000 	0.000 	-169.800 	33.800 	0.000
101.5500 	24.3700 	0.000 	0.000 	-169.800 	33.800 	0.000
101.5500 	24.4500 	0.000 	0.000 	-169.800 	33.800 	0.000
101.5500 	24.5300 	0.000 	0.000 	-169.800 	33.800 	0.000
101.5500 	24.6100 	0.000 	0.000 	-169.800 	33.800 	0.000
101.5500 	24.6900 	0.000 	0.000 	-169.800 	33.800 	0.000
101.5500 	24.7700 	0.000 	0.000 	-169.800 	33.800 	0.000
101.5500 	24.8500 	0.000 	0.000 	-169.800 	33.800 	0.000
101.5500 	24.9300 	0.000 	0.000 	-169.800 	33.800 	0.000
101.5500 	25.0100 	0.000 	0.000 	-169.800 	33.800 	0.000
101.5500 	25.0900 	0.000 	0.000 	-169.800 	33.800 	0.000
101.5500 	25.1700 	0.000 	0.000 	-169.800 	33.800 	0.000
101.5500 	25.2500 	0.000 	0.000 	-169.800 	33.800 	0.000
101.5500 	25.3300 	0.000 	0.000 	-169.800 	33.800 	0.000
101.5500 	25.4100 	0.000 	0.000 	-169.800 	33.800 	0.000
101.5500 	25.4900 	0.000 	0.000 	-169.800 	33.800 	0.000
101.5500 	25.5700 	0.000 	0.000 	-169.800 	33.800 	0.000
101.5500 	25.6500 	0.000 	0.000 	-169.800 	33.800 	0.000
101.5500 	25.7300 	0.000 	0.000 	-169.800 	33.800 	0.000
101.5500 	25.8100 	0.000 	0.000 	-169.800 	33.800 	0.000
101.5500 	25.8900 	0.000 	0.000 	-169.800 	33.800 	0.000
101.5500 	25.9700 	0.000 	0.000 	-169.800 	33.800 	0.000
101.5500 	26.0500 	0.000 	0.000 	-169.800 	33.800 	0.000
101.5500 	26.1300 	0.000 	0.000 	-169.800 	33.800 	0.000
101.5500 	26.2100 	0.000 	0.000 	-169.800 	33.800 	0.000
101.5500 	26.2900 	0.000 	0.000 	-169.800 	33.800 	0.000
101.5500 	26.3700 	0.000 	0.000 	-169.800 	33.800 	0.000
101.5500 	26.4500 	0.000 	0.000 	-169.800 	33.800 	0.000
101.5500 	26.5300 	0.000 	0.000 	-169.800 	33.800 	0.000
101.5500 	26.6100 	0.000 	0.000 	-169.800 	33.800 	0.000
101.5500 	26.6900 	0.000 	0.000 	-169.800 	33.800 	0.000
101.5500 	26.7700 	0.000 	0.000 	-169.800 	33.800 	0.000
101.5500 	26.8500 	0.000 	0.000 	-169.800 	33.800 	0.000
101.5500 	26.9300 	0.000 	0.000 	-169.800 	33.800 	0.000
101.5500 	27.0100 	0.000 	0.000 	-169.800 	33.800 	0.000
101.5500 	27.0900 	0.000 	0.000 	-169.800 	33.800 	0.000
101.5500 	27.1700 	0.000 	0.000 	-169.800 	33.800 	0.000
101.5500 	27.2500 	0.000 	0.000 	-169.800 	33.800 	0.000
101.5500 	27.3300 	0.000 	0.000 	-169.800 	33.800 	0.000
101.5500 	27.4100 	0.000 	0.000 	-169.800 	33.800 	0.000
101.5500 	27.4900 	0.000 	0.000 	-169.800 	33.800 	0.000
101.5500 	27.5700 	0.000 	0.000 	-169.800 	33.800 	0.000
101.5500 	27.6500 	0.000 	0.000 	-169.800 	33.800 	0.000
101.5500 	27.7300 	0.000 	0.000 	-169.800 	33.800 	0.000
101.5500 	27.8100 	0.000 	0.000 	-169.800 	33.800 	0.000
101.5500 	27.8900 	0.000 	0.000 	-169.800 	33.800 	0.000
101.5500 	27.9700 	0.000 	0.000 	-169.800 	33.800 	0.000
101.5500 	28.0500 	0.000 	0.000 	-169.800 	33.800 	0.000
101.5500 	28.1300 	0.000 	0.000 	-169.800 	33.800 	0.000
101.5500 	28.2100 	0.000 	0.000 	-169.800 	33.800 	0.000
101.5500 	28.2900 	0.000 	0.000 	-169.800 	33.800 	0.000
101.5500 	28.3700 	0.000 	0.000 	-169.800 	33.800 	0.000
101.5500 	28.4500 	0.000 	0.000 	-169.800 	33.800 	0.000
101.5500 	28.5300 	0.000 	0.000 	-169.800 	33.800 	0.000
101.5500 	28.6100 	0.000 	0.000 	-169.800 	33.800 	0.000
101.5500 	28.6900 	0.000 	0.000 	-169.800 	33.800 	0.000
101.5500 	28.7700 	0.000 	0.000 	-169.800 	33.800 	0.000
101.5500 	28.8500 	0.000 	0.000 	-169.800 	33.800 	0.000
101.5500 	28.9300 	0.000 	0.000 	-169.800 	33.800 	0.000
101.5500 	29.0100 	0.000 	0.000 	-169.800 	33.800 	0.000
101.5500 	29.0900 	0.000 	0.000 	-169.800 	33.800 	0.000
101.5500 	29.1700 	0.000 	0.000 	-169.800 	33.800 	0.000
101.6300 	23.6500 	0.000 	0.000 	-169.800 	33.800 	0.000
101.6300 	23.7300 	0.000 	0.000 	-169.800 	33.800 	0.000
101.6300 	23.8100 	0.000 	0.000 	-169.800 	33.800 	0.000
101.6300 	23.8900 	0.000 	0.000 	-169.800 	33.800 	0.000
101.6300 	23.9700 	0.000 	0.000 	-169.800 	33.800 	0.000
101.6300 	24.0500 	0.000 	0.000 	-169.800 	33.800 	0.000
101.6300 	24.1300 	0.000 	0.000 	-169.800 	33.800 	0.000
101.6300 	24.2100 	0.000 	0.000 	-169.800 	33.800 	0.000
101.6300 	24.2900 	0.000 	0.000 	-169.800 	33.800 	0.000
101.6300 	24.3700 	0.000 	0.000 	-169.800 	33.800 	0.000
101.6300 	24.4500 	0.000 	0.000 	-169.800 	33.800 	0.000
101.6300 	24.5300 	0.000 	0.000 	-169.800 	33.800 	0.000
101.6300 	24.6100 	0.000 	0.000 	-169.800 	33.800 	0.000
101.6300 	24.6900 	0.000 	0.000 	-169.800 	33.800 	0.000
101.6300 	24.7700 	0.000 	0.000 	-169.800 	33.800 	0.000
101.6300 	24.8500 	0.000 	0.000 	-169.800 	33.800 	0.000
101.6300 	24.9300 	0.000 	0.000 	-169.800 	33.800 	0.000
101.6300 	25.0100 	0.000 	0.000 	-169.800 	33.800 	0.000
101.6300 	25.0900 	0.000 	0.000 	-169.800 	33.800 	0.000
101.6300 	25.1700 	0.000 	0.000 	-169.800 	33.800 	0.000
101.6300 	25.2500 	0.000 	0.000 	-169.800 	33.800 	0.000
101.6300 	25.3300 	0.000 	0.000 	-169.800 	33.800 	0.000
101.6300 	25.4100 	0.000 	0.000 	-169.800 	33.800 	0.000
101.6300 	25.4900 	0.000 	0.000 	-169.800 	33.800 	0.000
101.6300 	25.5700 	0.000 	0.000 	-169.800 	33.800 	0.000
101.6300 	25.6500 	0.000 	0.000 	-169.800 	33.800 	0.000
101.6300 	25.7300 	0.000 	0.000 	-169.800 	33.800 	0.000
101.6300 	25.8100 	0.000 	0.000 	-169.800 	33.800 	0.000
101.6300 	25.8900 	0.000 	0.000 	-169.800 	33.800 	0.000
101.6300 	25.9700 	0.000 	0.000 	-169.800 	33.800 	0.000
101.6300 	26.0500 	0.000 	0.000 	-169.800 	33.800 	0.000
101.6300 	26.1300 	0.000 	0.000 	-169.800 	33.800 	0.000
101.6300 	26.2100 	0.000 	0.000 	-169.800 	33.800 	0.000
101.6300 	26.2900 	0.000 	0.000 	-169.800 	33.800 	0.000
101.6300 	26.3700 	0.000 	0.000 	-169.800 	33.800 	0.000
101.6300 	26.4500 	0.000 	0.000 	-169.800 	33.800 	0.000
101.6300 	26.5300 	0.000 	0.000 	-169.800 	33.800 	0.000
101.6300 	26.6100 	0.000 	0.000 	-169.800 	33.800 	0.000
101.6300 	26.6900 	0.000 	0.000 	-169.800 	33.800 	0.000
101.6300 	26.7700 	0.000 	0.000 	-169.800 	33.800 	0.000
101.6300 	26.8500 	0.000 	0.000 	-169.800 	33.800 	0.000
101.6300 	26.9300 	0.000 	0.000 	-169.800 	33.800 	0.000
101.6300 	27.0100 	0.000 	0.000 	-169.800 	33.800 	0.000
101.6300 	27.0900 	0.000 	0.000 	-169.800 	33.800 	0.000
101.6300 	27.1700 	0.000 	0.000 	-169.800 	33.800 	0.000
101.6300 	27.2500 	0.000 	0.000 	-169.800 	33.800 	0.000
101.6300 	27.3300 	0.000 	0.000 	-169.800 	33.800 	0.000
101.6300 	27.4100 	0.000 	0.000 	-169.800 	33.800 	0.000
101.6300 	27.4900 	0.000 	0.000 	-169.800 	33.800 	0.000
101.6300 	27.5700 	0.000 	0.000 	-169.800 	33.800 	0.000
101.6300 	27.6500 	0.000 	0.000 	-169.800 	33.800 	0.000
101.6300 	27.7300 	0.000 	0.000 	-169.800 	33.800 	0.000
101.6300 	27.8100 	0.000 	0.000 	-169.800 	33.800 	0.000
101.6300 	27.8900 	0.000 	0.000 	-169.800 	33.800 	0.000
101.6300 	27.9700 	0.000 	0.000 	-169.800 	33.800 	0.000
101.6300 	28.0500 	0.000 	0.000 	-169.800 	33.800 	0.000
101.6300 	28.1300 	0.000 	0.000 	-169.800 	33.800 	0.000
101.6300 	28.2100 	0.000 	0.000 	-169.800 	33.800 	0.000
101.6300 	28.2900 	0.000 	0.000 	-169.800 	33.800 	0.000
101.6300 	28.3700 	0.000 	0.000 	-169.800 	33.800 	0.000
101.6300 	28.4500 	0.000 	0.000 	-169.800 	33.800 	0.000
101.6300 	28.5300 	0.000 	0.000 	-169.800 	33.800 	0.000
101.6300 	28.6100 	0.000 	0.000 	-169.800 	33.800 	0.000
101.6300 	28.6900 	0.000 	0.000 	-169.800 	33.800 	0.000
101.6300 	28.7700 	0.000 	0.000 	-169.800 	33.800 	0.000
101.6300 	28.8500 	0.000 	0.000 	-169.800 	33.800 	0.000
101.6300 	28.9300 	0.000 	0.000 	-169.800 	33.800 	0.000
101.6300 	29.0100 	0.000 	0.000 	-169.800 	33.800 	0.000
101.6300 	29.0900 	0.000 	0.000 	-169.800 	33.800 	0.000
101.6300 	29.1700 	0.000 	0.000 	-169.800 	33.800 	0.000
101.7100 	23.8900 	0.000 	0.000 	-169.800 	33.800 	0.000
101.7100 	23.9700 	0.000 	0.000 	-169.800 	33.800 	0.000
101.7100 	24.0500 	0.000 	0.000 	-169.800 	33.800 	0.000
101.7100 	24.1300 	0.000 	0.000 	-169.800 	33.800 	0.000
101.7100 	24.2100 	0.000 	0.000 	-169.800 	33.800 	0.000
101.7100 	24.2900 	0.000 	0.000 	-169.800 	33.800 	0.000
101.7100 	24.3700 	0.000 	0.000 	-169.800 	33.800 	0.000
101.7100 	24.4500 	0.000 	0.000 	-169.800 	33.800 	0.000
101.7100 	24.5300 	0.000 	0.000 	-169.800 	33.800 	0.000
101.7100 	24.6100 	0.000 	0.000 	-169.800 	33.800 	0.000
101.7100 	24.6900 	0.000 	0.000 	-169.800 	33.800 	0.000
101.7100 	24.7700 	0.000 	0.000 	-169.800 	33.800 	0.000
101.7100 	24.8500 	0.000 	0.000 	-169.800 	33.800 	0.000
101.7100 	24.9300 	0.000 	0.000 	-169.800 	33.800 	0.000
101.7100 	25.0100 	0.000 	0.000 	-169.800 	33.800 	0.000
101.7100 	25.0900 	0.000 	0.000 	-169.800 	33.800 	0.000
101.7100 	25.1700 	0.000 	0.000 	-169.800 	33.800 	0.000
101.7100 	25.2500 	0.000 	0.000 	-169.800 	33.800 	0.000
101.7100 	25.3300 	0.000 	0.000 	-169.800 	33.800 	0.000
101.7100 	25.4100 	0.000 	0.000 	-169.800 	33.800 	0.000
101.7100 	25.4900 	0.000 	0.000 	-169.800 	33.800 	0.000
101.7100 	25.5700 	0.000 	0.000 	-169.800 	33.800 	0.000
101.7100 	25.6500 	0.000 	0.000 	-169.800 	33.800 	0.000
101.7100 	25.7300 	0.000 	0.000 	-169.800 	33.800 	0.000
101.7100 	25.8100 	0.000 	0.000 	-169.800 	33.800 	0.000
101.7100 	25.8900 	0.000 	0.000 	-169.800 	33.800 	0.000
101.7100 	25.9700 	0.000 	0.000 	-169.800 	33.800 	0.000
101.7100 	26.0500 	0.000 	0.000 	-169.800 	33.800 	0.000
101.7100 	26.1300 	0.000 	0.000 	-169.800 	33.800 	0.000
101.7100 	26.2100 	0.000 	0.000 	-169.800 	33.800 	0.000
101.7100 	26.2900 	0.000 	0.000 	-169.800 	33.800 	0.000
101.7100 	26.3700 	0.000 	0.000 	-169.800 	33.800 	0.000
101.7100 	26.4500 	0.000 	0.000 	-169.800 	33.800 	0.000
101.7100 	26.5300 	0.000 	0.000 	-169.800 	33.800 	0.000
101.7100 	26.6100 	0.000 	0.000 	-169.800 	33.800 	0.000
101.7100 	26.6900 	0.000 	0.000 	-169.800 	33.800 	0.000
101.7100 	26.7700 	0.000 	0.000 	-169.800 	33.800 	0.000
101.7100 	26.8500 	0.000 	0.000 	-169.800 	33.800 	0.000
101.7100 	26.9300 	0.000 	0.000 	-169.800 	33.800 	0.000
101.7100 	27.0100 	0.000 	0.000 	-169.800 	33.800 	0.000
101.7100 	27.0900 	0.000 	0.000 	-169.800 	33.800 	0.000
101.7100 	27.1700 	0.000 	0.000 	-169.800 	33.800 	0.000
101.7100 	27.2500 	0.000 	0.000 	-169.800 	33.800 	0.000
101.7100 	27.3300 	0.000 	0.000 	-169.800 	33.800 	0.000
101.7100 	27.4100 	0.000 	0.000 	-169.800 	33.800 	0.000
101.7100 	27.4900 	0.000 	0.000 	-169.800 	33.800 	0.000
101.7100 	27.5700 	0.000 	0.000 	-169.800 	33.800 	0.000
101.7100 	27.6500 	0.000 	0.000 	-169.800 	33.800 	0.000
101.7100 	27.7300 	0.000 	0.000 	-169.800 	33.800 	0.000
101.7100 	27.8100 	0.000 	0.000 	-169.800 	33.800 	0.000
101.7100 	27.8900 	0.000 	0.000 	-169.800 	33.800 	0.000
101.7100 	27.9700 	0.000 	0.000 	-169.800 	33.800 	0.000
101.7100 	28.0500 	0.000 	0.000 	-169.800 	33.800 	0.000
101.7100 	28.1300 	0.000 	0.000 	-169.800 	33.800 	0.000
101.7100 	28.2100 	0.000 	0.000 	-169.800 	33.800 	0.000
101.7100 	28.2900 	0.000 	0.000 	-169.800 	33.800 	0.000
101.7100 	28.3700 	0.000 	0.000 	-169.800 	33.800 	0.000
101.7100 	28.4500 	0.000 	0.000 	-169.800 	33.800 	0.000
101.7100 	28.5300 	0.000 	0.000 	-169.800 	33.800 	0.000
101.7100 	28.6100 	0.000 	0.000 	-169.800 	33.800 	0.000
101.7100 	28.6900 	0.000 	0.000 	-169.800 	33.800 	0.000
101.7100 	28.7700 	0.000 	0.000 	-169.800 	33.800 	0.000
101.7100 	28.8500 	0.000 	0.000 	-169.800 	33.800 	0.000
101.7100 	28.9300 	0.000 	0.000 	-169.800 	33.800 	0.000
101.7100 	29.0100 	0.000 	0.000 	-169.800 	33.800 	0.000
101.7100 	29.0900 	0.000 	0.000 	-169.800 	33.800 	0.000
101.7100 	29.1700 	0.000 	0.000 	-169.800 	33.800 	0.000
101.7900 	24.1300 	0.000 	0.000 	-169.800 	33.800 	0.000
101.7900 	24.2100 	0.000 	0.000 	-169.800 	33.800 	0.000
101.7900 	24.2900 	0.000 	0.000 	-169.800 	33.800 	0.000
101.7900 	24.3700 	0.000 	0.000 	-169.800 	33.800 	0.000
101.7900 	24.4500 	0.000 	0.000 	-169.800 	33.800 	0.000
101.7900 	24.5300 	0.000 	0.000 	-169.800 	33.800 	0.000
101.7900 	24.6100 	0.000 	0.000 	-169.800 	33.800 	0.000
101.7900 	24.6900 	0.000 	0.000 	-169.800 	33.800 	0.000
101.7900 	24.7700 	0.000 	0.000 	-169.800 	33.800 	0.000
101.7900 	24.8500 	0.000 	0.000 	-169.800 	33.800 	0.000
101.7900 	24.9300 	0.000 	0.000 	-169.800 	33.800 	0.000
101.7900 	25.0100 	0.000 	0.000 	-169.800 	33.800 	0.000
101.7900 	25.0900 	0.000 	0.000 	-169.800 	33.800 	0.000
101.7900 	25.1700 	0.000 	0.000 	-169.800 	33.800 	0.000
101.7900 	25.2500 	0.000 	0.000 	-169.800 	33.800 	0.000
101.7900 	25.3300 	0.000 	0.000 	-169.800 	33.800 	0.000
101.7900 	25.4100 	0.000 	0.000 	-169.800 	33.800 	0.000
101.7900 	25.4900 	0.000 	0.000 	-169.800 	33.800 	0.000
101.7900 	25.5700 	0.000 	0.000 	-169.800 	33.800 	0.000
101.7900 	25.6500 	0.000 	0.000 	-169.800 	33.800 	0.000
101.7900 	25.7300 	0.000 	0.000 	-169.800 	33.800 	0.000
101.7900 	25.8100 	0.000 	0.000 	-169.800 	33.800 	0.000
101.7900 	25.8900 	0.000 	0.000 	-169.800 	33.800 	0.000
101.7900 	25.9700 	0.000 	0.000 	-169.800 	33.800 	0.000
101.7900 	26.0500 	0.000 	0.000 	-169.800 	33.800 	0.000
101.7900 	26.1300 	0.000 	0.000 	-169.800 	33.800 	0.000
101.7900 	26.2100 	0.000 	0.000 	-169.800 	33.800 	0.000
101.7900 	26.2900 	0.000 	0.000 	-169.800 	33.800 	0.000
101.7900 	26.3700 	0.000 	0.000 	-169.800 	33.800 	0.000
101.7900 	26.4500 	0.000 	0.000 	-169.800 	33.800 	0.000
101.7900 	26.5300 	0.000 	0.000 	-169.800 	33.800 	0.000
101.7900 	26.6100 	0.000 	0.000 	-169.800 	33.800 	0.000
101.7900 	26.6900 	0.000 	0.000 	-169.800 	33.800 	0.000
101.7900 	26.7700 	0.000 	0.000 	-169.800 	33.800 	0.000
101.7900 	26.8500 	0.000 	0.000 	-169.800 	33.800 	0.000
101.7900 	26.9300 	0.000 	0.000 	-169.800 	33.800 	0.000
101.7900 	27.0100 	0.000 	0.000 	-169.800 	33.800 	0.000
101.7900 	27.0900 	0.000 	0.000 	-169.800 	33.800 	0.000
101.7900 	27.1700 	0.000 	0.000 	-169.800 	33.800 	0.000
101.7900 	27.2500 	0.000 	0.000 	-169.800 	33.800 	0.000
101.7900 	27.3300 	0.000 	0.000 	-169.800 	33.800 	0.000
101.7900 	27.4100 	0.000 	0.000 	-169.800 	33.800 	0.000
101.7900 	27.4900 	0.000 	0.000 	-169.800 	33.800 	0.000
101.7900 	27.5700 	0.000 	0.000 	-169.800 	33.800 	0.000
101.7900 	27.6500 	0.000 	0.000 	-169.800 	33.800 	0.000
101.7900 	27.7300 	0.000 	0.000 	-169.800 	33.800 	0.000
101.7900 	27.8100 	0.000 	0.000 	-169.800 	33.800 	0.000
101.7900 	27.8900 	0.000 	0.000 	-169.800 	33.800 	0.000
101.7900 	27.9700 	0.000 	0.000 	-169.800 	33.800 	0.000
101.7900 	28.0500 	0.000 	0.000 	-169.800 	33.800 	0.000
101.7900 	28.1300 	0.000 	0.000 	-169.800 	33.800 	0.000
101.7900 	28.2100 	0.000 	0.000 	-169.800 	33.800 	0.000
101.7900 	28.2900 	0.000 	0.000 	-169.800 	33.800 	0.000
101.7900 	28.3700 	0.000 	0.000 	-169.800 	33.800 	0.000
101.7900 	28.4500 	0.000 	0.000 	-169.800 	33.800 	0.000
101.7900 	28.5300 	0.000 	0.000 	-169.800 	33.800 	0.000
101.7900 	28.6100 	0.000 	0.000 	-169.800 	33.800 	0.000
101.7900 	28.6900 	0.000 	0.000 	-169.800 	33.800 	0.000
101.7900 	28.7700 	0.000 	0.000 	-169.800 	33.800 	0.000
101.7900 	28.8500 	0.000 	0.000 	-169.800 	33.800 	0.000
101.7900 	28.9300 	0.000 	0.000 	-169.800 	33.800 	0.000
101.7900 	29.0100 	0.000 	0.000 	-169.800 	33.800 	0.000
101.7900 	29.0900 	0.000 	0.000 	-169.800 	33.800 	0.000
101.7900 	29.1700 	0.000 	0.000 	-169.800 	33.800 	0.000
101.8700 	24.3700 	0.000 	0.000 	-169.800 	33.800 	0.000
101.8700 	24.4500 	0.000 	0.000 	-169.800 	33.800 	0.000
101.8700 	24.5300 	0.000 	0.000 	-169.800 	33.800 	0.000
101.8700 	24.6100 	0.000 	0.000 	-169.800 	33.800 	0.000
101.8700 	24.6900 	0.000 	0.000 	-169.800 	33.800 	0.000
101.8700 	24.7700 	0.000 	0.000 	-169.800 	33.800 	0.000
101.8700 	24.8500 	0.000 	0.000 	-169.800 	33.800 	0.000
101.8700 	24.9300 	0.000 	0.000 	-169.800 	33.800 	0.000
101.8700 	25.0100 	0.000 	0.000 	-169.800 	33.800 	0.000
101.8700 	25.0900 	0.000 	0.000 	-169.800 	33.800 	0.000
101.8700 	25.1700 	0.000 	0.000 	-169.800 	33.800 	0.000
101.8700 	25.2500 	0.000 	0.000 	-169.800 	33.800 	0.000
101.8700 	25.3300 	0.000 	0.000 	-169.800 	33.800 	0.000
101.8700 	25.4100 	0.000 	0.000 	-169.800 	33.800 	0.000
101.8700 	25.4900 	0.000 	0.000 	-169.800 	33.800 	0.000
101.8700 	25.5700 	0.000 	0.000 	-169.800 	33.800 	0.000
101.8700 	25.6500 	0.000 	0.000 	-169.800 	33.800 	0.000
101.8700 	25.7300 	0.000 	0.000 	-169.800 	33.800 	0.000
101.8700 	25.8100 	0.000 	0.000 	-169.800 	33.800 	0.000
101.8700 	25.8900 	0.000 	0.000 	-169.800 	33.800 	0.000
101.8700 	25.9700 	0.000 	0.000 	-169.800 	33.800 	0.000
101.8700 	26.0500 	0.000 	0.000 	-169.800 	33.800 	0.000
101.8700 	26.1300 	0.000 	0.000 	-169.800 	33.800 	0.000
101.8700 	26.2100 	0.000 	0.000 	-169.800 	33.800 	0.000
101.8700 	26.2900 	0.000 	0.000 	-169.800 	33.800 	0.000
101.8700 	26.3700 	0.000 	0.000 	-169.800 	33.800 	0.000
101.8700 	26.4500 	0.000 	0.000 	-169.800 	33.800 	0.000
101.8700 	26.5300 	0.000 	0.000 	-169.800 	33.800 	0.000
101.8700 	26.6100 	0.000 	0.000 	-169.800 	33.800 	0.000
101.8700 	26.6900 	0.000 	0.000 	-169.800 	33.800 	0.000
101.8700 	26.7700 	0.000 	0.000 	-169.800 	33.800 	0.000
101.8700 	26.8500 	0.000 	0.000 	-169.800 	33.800 	0.000
101.8700 	26.9300 	0.000 	0.000 	-169.800 	33.800 	0.000
101.8700 	27.0100 	0.000 	0.000 	-169.800 	33.800 	0.000
101.8700 	27.0900 	0.000 	0.000 	-169.800 	33.800 	0.000
101.8700 	27.1700 	0.000 	0.000 	-169.800 	33.800 	0.000
101.8700 	27.2500 	0.000 	0.000 	-169.800 	33.800 	0.000
101.8700 	27.3300 	0.000 	0.000 	-169.800 	33.800 	0.000
101.8700 	27.4100 	0.000 	0.000 	-169.800 	33.800 	0.000
101.8700 	27.4900 	0.000 	0.000 	-169.800 	33.800 	0.000
101.8700 	27.5700 	0.000 	0.000 	-169.800 	33.800 	0.000
101.8700 	27.6500 	0.000 	0.000 	-169.800 	33.800 	0.000
101.8700 	27.7300 	0.000 	0.000 	-169.800 	33.800 	0.000
101.8700 	27.8100 	0.000 	0.000 	-169.800 	33.800 	0.000
101.8700 	27.8900 	0.000 	0.000 	-169.800 	33.800 	0.000
101.8700 	27.9700 	0.000 	0.000 	-169.800 	33.800 	0.000
101.8700 	28.0500 	0.000 	0.000 	-169.800 	33.800 	0.000
101.8700 	28.1300 	0.000 	0.000 	-169.800 	33.800 	0.000
101.8700 	28.2100 	0.000 	0.000 	-169.800 	33.800 	0.000
101.8700 	28.2900 	0.000 	0.000 	-169.800 	33.800 	0.000
101.8700 	28.3700 	0.000 	0.000 	-169.800 	33.800 	0.000
101.8700 	28.4500 	0.000 	0.000 	-169.800 	33.800 	0.000
101.8700 	28.5300 	0.000 	0.000 	-169.800 	33.800 	0.000
101.8700 	28.6100 	0.000 	0.000 	-169.800 	33.800 	0.000
101.8700 	28.6900 	0.000 	0.000 	-169.800 	33.800 	0.000
101.8700 	28.7700 	0.000 	0.000 	-169.800 	33.800 	0.000
101.8700 	28.8500 	0.000 	0.000 	-169.800 	33.800 	0.000
101.8700 	28.9300 	0.000 	0.000 	-169.800 	33.800 	0.000
101.8700 	29.0100 	0.000 	0.000 	-169.800 	33.800 	0.000
101.8700 	29.0900 	0.000 	0.000 	-169.800 	33.800 	0.000
101.8700 	29.1700 	0.000 	0.000 	-169.800 	33.800 	0.000
101.9500 	24.6100 	0.000 	0.000 	-169.800 	33.800 	0.000
101.9500 	24.6900 	0.000 	0.000 	-169.800 	33.800 	0.000
101.9500 	24.7700 	0.000 	0.000 	-169.800 	33.800 	0.000
101.9500 	24.8500 	0.000 	0.000 	-169.800 	33.800 	0.000
101.9500 	24.9300 	0.000 	0.000 	-169.800 	33.800 	0.000
101.9500 	25.0100 	0.000 	0.000 	-169.800 	33.800 	0.000
101.9500 	25.0900 	0.000 	0.000 	-169.800 	33.800 	0.000
101.9500 	25.1700 	0.000 	0.000 	-169.800 	33.800 	0.000
101.9500 	25.2500 	0.000 	0.000 	-169.800 	33.800 	0.000
101.9500 	25.3300 	0.000 	0.000 	-169.800 	33.800 	0.000
101.9500 	25.4100 	0.000 	0.000 	-169.800 	33.800 	0.000
101.9500 	25.4900 	0.000 	0.000 	-169.800 	33.800 	0.000
101.9500 	25.5700 	0.000 	0.000 	-169.800 	33.800 	0.000
101.9500 	25.6500 	0.000 	0.000 	-169.800 	33.800 	0.000
101.9500 	25.7300 	0.000 	0.000 	-169.800 	33.800 	0.000
101.9500 	25.8100 	0.000 	0.000 	-169.800 	33.800 	0.000
101.9500 	25.8900 	0.000 	0.000 	-169.800 	33.800 	0.000
101.9500 	25.9700 	0.000 	0.000 	-169.800 	33.800 	0.000
101.9500 	26.0500 	0.000 	0.000 	-169.800 	33.800 	0.000
101.9500 	26.1300 	0.000 	0.000 	-169.800 	33.800 	0.000
101.9500 	26.2100 	0.000 	0.000 	-169.800 	33.800 	0.000
101.9500 	26.2900 	0.000 	0.000 	-169.800 	33.800 	0.000
101.9500 	26.3700 	0.000 	0.000 	-169.800 	33.800 	0.000
101.9500 	26.4500 	0.000 	0.000 	-169.800 	33.800 	0.000
101.9500 	26.5300 	0.000 	0.000 	-169.800 	33.800 	0.000
101.9500 	26.6100 	0.000 	0.000 	-169.800 	33.800 	0.000
101.9500 	26.6900 	0.000 	0.000 	-169.800 	33.800 	0.000
101.9500 	26.7700 	0.000 	0.000 	-169.800 	33.800 	0.000
101.9500 	26.8500 	0.000 	0.000 	-169.800 	33.800 	0.000
101.9500 	26.9300 	0.000 	0.000 	-169.800 	33.800 	0.000
101.9500 	27.0100 	0.000 	0.000 	-169.800 	33.800 	0.000
101.9500 	27.0900 	0.000 	0.000 	-169.800 	33.800 	0.000
101.9500 	27.1700 	0.000 	0.000 	-169.800 	33.800 	0.000
101.9500 	27.2500 	0.000 	0.000 	-169.800 	33.800 	0.000
101.9500 	27.3300 	0.000 	0.000 	-169.800 	33.800 	0.000
101.9500 	27.4100 	0.000 	0.000 	-169.800 	33.800 	0.000
101.9500 	27.4900 	0.000 	0.000 	-169.800 	33.800 	0.000
101.9500 	27.5700 	0.000 	0.000 	-169.800 	33.800 	0.000
101.9500 	27.6500 	0.000 	0.000 	-169.800 	33.800 	0.000
101.9500 	27.7300 	0.000 	0.000 	-169.800 	33.800 	0.000
101.9500 	27.8100 	0.000 	0.000 	-169.800 	33.800 	0.000
101.9500 	27.8900 	0.000 	0.000 	-169.800 	33.800 	0.000
101.9500 	27.9700 	0.000 	0.000 	-169.800 	33.800 	0.000
101.9500 	28.0500 	0.000 	0.000 	-169.800 	33.800 	0.000
101.9500 	28.1300 	0.000 	0.000 	-169.800 	33.800 	0.000
101.9500 	28.2100 	0.000 	0.000 	-169.800 	33.800 	0.000
101.9500 	28.2900 	0.000 	0.000 	-169.800 	33.800 	0.000
101.9500 	28.3700 	0.000 	0.000 	-169.800 	33.800 	0.000
101.9500 	28.4500 	0.000 	0.000 	-169.800 	33.800 	0.000
101.9500 	28.5300 	0.000 	0.000 	-169.800 	33.800 	0.000
101.9500 	28.6100 	0.000 	0.000 	-169.800 	33.800 	0.000
101.9500 	28.6900 	0.000 	0.000 	-169.800 	33.800 	0.000
101.9500 	28.7700 	0.000 	0.000 	-169.800 	33.800 	0.000
101.9500 	28.8500 	0.000 	0.000 	-169.800 	33.800 	0.000
101.9500 	28.9300 	0.000 	0.000 	-169.800 	33.800 	0.000
101.9500 	29.0100 	0.000 	0.000 	-169.800 	33.800 	0.000
101.9500 	29.0900 	0.000 	0.000 	-169.800 	33.800 	0.000
101.9500 	29.1700 	0.000 	0.000 	-169.800 	33.800 	0.000
102.0300 	24.8500 	0.000 	0.000 	-169.800 	33.800 	0.000
102.0300 	24.9300 	0.000 	0.000 	-169.800 	33.800 	0.000
102.0300 	25.0100 	0.000 	0.000 	-169.800 	33.800 	0.000
102.0300 	25.0900 	0.000 	0.000 	-169.800 	33.800 	0.000
102.0300 	25.1700 	0.000 	0.000 	-169.800 	33.800 	0.000
102.0300 	25.2500 	0.000 	0.000 	-169.800 	33.800 	0.000
102.0300 	25.3300 	0.000 	0.000 	-169.800 	33.800 	0.000
102.0300 	25.4100 	0.000 	0.000 	-169.800 	33.800 	0.000
102.0300 	25.4900 	0.000 	0.000 	-169.800 	33.800 	0.000
102.0300 	25.5700 	0.000 	0.000 	-169.800 	33.800 	0.000
102.0300 	25.6500 	0.000 	0.000 	-169.800 	33.800 	0.000
102.0300 	25.7300 	0.000 	0.000 	-169.800 	33.800 	0.000
102.0300 	25.8100 	0.000 	0.000 	-169.800 	33.800 	0.000
102.0300 	25.8900 	0.000 	0.000 	-169.800 	33.800 	0.000
102.0300 	25.9700 	0.000 	0.000 	-169.800 	33.800 	0.000
102.0300 	26.0500 	0.000 	0.000 	-169.800 	33.800 	0.000
102.0300 	26.1300 	0.000 	0.000 	-169.800 	33.800 	0.000
102.0300 	26.2100 	0.000 	0.000 	-169.800 	33.800 	0.000
102.0300 	26.2900 	0.000 	0.000 	-169.800 	33.800 	0.000
102.0300 	26.3700 	0.000 	0.000 	-169.800 	33.800 	0.000
102.0300 	26.4500 	0.000 	0.000 	-169.800 	33.800 	0.000
102.0300 	26.5300 	0.000 	0.000 	-169.800 	33.800 	0.000
102.0300 	26.6100 	0.000 	0.000 	-169.800 	33.800 	0.000
102.0300 	26.6900 	0.000 	0.000 	-169.800 	33.800 	0.000
102.0300 	26.7700 	0.000 	0.000 	-169.800 	33.800 	0.000
102.0300 	26.8500 	0.000 	0.000 	-169.800 	33.800 	0.000
102.0300 	26.9300 	0.000 	0.000 	-169.800 	33.800 	0.000
102.0300 	27.0100 	0.000 	0.000 	-169.800 	33.800 	0.000
102.0300 	27.0900 	0.000 	0.000 	-169.800 	33.800 	0.000
102.0300 	27.1700 	0.000 	0.000 	-169.800 	33.800 	0.000
102.0300 	27.2500 	0.000 	0.000 	-169.800 	33.800 	0.000
102.0300 	27.3300 	0.000 	0.000 	-169.800 	33.800 	0.000
102.0300 	27.4100 	0.000 	0.000 	-169.800 	33.800 	0.000
102.0300 	27.4900 	0.000 	0.000 	-169.800 	33.800 	0.000
102.0300 	27.5700 	0.000 	0.000 	-169.800 	33.800 	0.000
102.0300 	27.6500 	0.000 	0.000 	-169.800 	33.800 	0.000
102.0300 	27.7300 	0.000 	0.000 	-169.800 	33.800 	0.000
102.0300 	27.8100 	0.000 	0.000 	-169.800 	33.800 	0.000
102.0300 	27.8900 	0.000 	0.000 	-169.800 	33.800 	0.000
102.0300 	27.9700 	0.000 	0.000 	-169.800 	33.800 	0.000
102.0300 	28.0500 	0.000 	0.000 	-169.800 	33.800 	0.000
102.0300 	28.1300 	0.000 	0.000 	-169.800 	33.800 	0.000
102.0300 	28.2100 	0.000 	0.000 	-169.800 	33.800 	0.000
102.0300 	28.2900 	0.000 	0.000 	-169.800 	33.800 	0.000
102.0300 	28.3700 	0.000 	0.000 	-169.800 	33.800 	0.000
102.0300 	28.4500 	0.000 	0.000 	-169.800 	33.800 	0.000
102.0300 	28.5300 	0.000 	0.000 	-169.800 	33.800 	0.000
102.0300 	28.6100 	0.000 	0.000 	-169.800 	33.800 	0.000
102.0300 	28.6900 	0.000 	0.000 	-169.800 	33.800 	0.000
102.0300 	28.7700 	0.000 	0.000 	-169.800 	33.800 	0.000
102.0300 	28.8500 	0.000 	0.000 	-169.800 	33.800 	0.000
102.0300 	28.9300 	0.000 	0.000 	-169.800 	33.800 	0.000
102.0300 	29.0100 	0.000 	0.000 	-169.800 	33.800 	0.000
102.0300 	29.0900 	0.000 	0.000 	-169.800 	33.800 	0.000
102.0300 	29.1700 	0.000 	0.000 	-169.800 	33.800 	0.000
102.1100 	25.0900 	0.000 	0.000 	-169.800 	33.800 	0.000
102.1100 	25.1700 	0.000 	0.000 	-169.800 	33.800 	0.000
102.1100 	25.2500 	0.000 	0.000 	-169.800 	33.800 	0.000
102.1100 	25.3300 	0.000 	0.000 	-169.800 	33.800 	0.000
102.1100 	25.4100 	0.000 	0.000 	-169.800 	33.800 	0.000
102.1100 	25.4900 	0.000 	0.000 	-169.800 	33.800 	0.000
102.1100 	25.5700 	0.000 	0.000 	-169.800 	33.800 	0.000
102.1100 	25.6500 	0.000 	0.000 	-169.800 	33.800 	0.000
102.1100 	25.7300 	0.000 	0.000 	-169.800 	33.800 	0.000
102.1100 	25.8100 	0.000 	0.000 	-169.800 	33.800 	0.000
102.1100 	25.8900 	0.000 	0.000 	-169.800 	33.800 	0.000
102.1100 	25.9700 	0.000 	0.000 	-169.800 	33.800 	0.000
102.1100 	26.0500 	0.000 	0.000 	-169.800 	33.800 	0.000
102.1100 	26.1300 	0.000 	0.000 	-169.800 	33.800 	0.000
102.1100 	26.2100 	0.000 	0.000 	-169.800 	33.800 	0.000
102.1100 	26.2900 	0.000 	0.000 	-169.800 	33.800 	0.000
102.1100 	26.3700 	0.000 	0.000 	-169.800 	33.800 	0.000
102.1100 	26.4500 	0.000 	0.000 	-169.800 	33.800 	0.000
102.1100 	26.5300 	0.000 	0.000 	-169.800 	33.800 	0.000
102.1100 	26.6100 	0.000 	0.000 	-169.800 	33.800 	0.000
102.1100 	26.6900 	0.000 	0.000 	-169.800 	33.800 	0.000
102.1100 	26.7700 	0.000 	0.000 	-169.800 	33.800 	0.000
102.1100 	26.8500 	0.000 	0.000 	-169.800 	33.800 	0.000
102.1100 	26.9300 	0.000 	0.000 	-169.800 	33.800 	0.000
102.1100 	27.0100 	0.000 	0.000 	-169.800 	33.800 	0.000
102.1100 	27.0900 	0.000 	0.000 	-169.800 	33.800 	0.000
102.1100 	27.1700 	0.000 	0.000 	-169.800 	33.800 	0.000
102.1100 	27.2500 	0.000 	0.000 	-169.800 	33.800 	0.000
102.1100 	27.3300 	0.000 	0.000 	-169.800 	33.800 	0.000
102.1100 	27.4100 	0.000 	0.000 	-169.800 	33.800 	0.000
102.1100 	27.4900 	0.000 	0.000 	-169.800 	33.800 	0.000
102.1100 	27.5700 	0.000 	0.000 	-169.800 	33.800 	0.000
102.1100 	27.6500 	0.000 	0.000 	-169.800 	33.800 	0.000
102.1100 	27.7300 	0.000 	0.000 	-169.800 	33.800 	0.000
102.1100 	27.8100 	0.000 	0.000 	-169.800 	33.800 	0.000
102.1100 	27.8900 	0.000 	0.000 	-169.800 	33.800 	0.000
102.1100 	27.9700 	0.000 	0.000 	-169.800 	33.800 	0.000
102.1100 	28.0500 	0.000 	0.000 	-169.800 	33.800 	0.000
102.1100 	28.1300 	0.000 	0.000 	-169.800 	33.800 	0.000
102.1100 	28.2100 	0.000 	0.000 	-169.800 	33.800 	0.000
102.1100 	28.2900 	0.000 	0.000 	-169.800 	33.800 	0.000
102.1100 	28.3700 	0.000 	0.000 	-169.800 	33.800 	0.000
102.1100 	28.4500 	0.000 	0.000 	-169.800 	33.800 	0.000
102.1100 	28.5300 	0.000 	0.000 	-169.800 	33.800 	0.000
102.1100 	28.6100 	0.000 	0.000 	-169.800 	33.800 	0.000
102.1100 	28.6900 	0.000 	0.000 	-169.800 	33.800 	0.000
102.1100 	28.7700 	0.000 	0.000 	-169.800 	33.800 	0.000
102.1100 	28.8500 	0.000 	0.000 	-169.800 	33.800 	0.000
102.1100 	28.9300 	0.000 	0.000 	-169.800 	33.800 	0.000
102.1100 	29.0100 	0.000 	0.000 	-169.800 	33.800 	0.000
102.1100 	29.0900 	0.000 	0.000 	-169.800 	33.800 	0.000
102.1100 	29.1700 	0.000 	0.000 	-169.800 	33.800 	0.000
102.1900 	25.3300 	0.000 	0.000 	-169.800 	33.800 	0.000
102.1900 	25.4100 	0.000 	0.000 	-169.800 	33.800 	0.000
102.1900 	25.4900 	0.000 	0.000 	-169.800 	33.800 	0.000
102.1900 	25.5700 	0.000 	0.000 	-169.800 	33.800 	0.000
102.1900 	25.6500 	0.000 	0.000 	-169.800 	33.800 	0.000
102.1900 	25.7300 	0.000 	0.000 	-169.800 	33.800 	0.000
102.1900 	25.8100 	0.000 	0.000 	-169.800 	33.800 	0.000
102.1900 	25.8900 	0.000 	0.000 	-169.800 	33.800 	0.000
102.1900 	25.9700 	0.000 	0.000 	-169.800 	33.800 	0.000
102.1900 	26.0500 	0.000 	0.000 	-169.800 	33.800 	0.000
102.1900 	26.1300 	0.000 	0.000 	-169.800 	33.800 	0.000
102.1900 	26.2100 	0.000 	0.000 	-169.800 	33.800 	0.000
102.1900 	26.2900 	0.000 	0.000 	-169.800 	33.800 	0.000
102.1900 	26.3700 	0.000 	0.000 	-169.800 	33.800 	0.000
102.1900 	26.4500 	0.000 	0.000 	-169.800 	33.800 	0.000
102.1900 	26.5300 	0.000 	0.000 	-169.800 	33.800 	0.000
102.1900 	26.6100 	0.000 	0.000 	-169.800 	33.800 	0.000
102.1900 	26.6900 	0.000 	0.000 	-169.800 	33.800 	0.000
102.1900 	26.7700 	0.000 	0.000 	-169.800 	33.800 	0.000
102.1900 	26.8500 	0.000 	0.000 	-169.800 	33.800 	0.000
102.1900 	26.9300 	0.000 	0.000 	-169.800 	33.800 	0.000
102.1900 	27.0100 	0.000 	0.000 	-169.800 	33.800 	0.000
102.1900 	27.0900 	0.000 	0.000 	-169.800 	33.800 	0.000
102.1900 	27.1700 	0.000 	0.000 	-169.800 	33.800 	0.000
102.1900 	27.2500 	0.000 	0.000 	-169.800 	33.800 	0.000
102.1900 	27.3300 	0.000 	0.000 	-169.800 	33.800 	0.000
102.1900 	27.4100 	0.000 	0.000 	-169.800 	33.800 	0.000
102.1900 	27.4900 	0.000 	0.000 	-169.800 	33.800 	0.000
102.1900 	27.5700 	0.000 	0.000 	-169.800 	33.800 	0.000
102.1900 	27.6500 	0.000 	0.000 	-169.800 	33.800 	0.000
102.1900 	27.7300 	0.000 	0.000 	-169.800 	33.800 	0.000
102.1900 	27.8100 	0.000 	0.000 	-169.800 	33.800 	0.000
102.1900 	27.8900 	0.000 	0.000 	-169.800 	33.800 	0.000
102.1900 	27.9700 	0.000 	0.000 	-169.800 	33.800 	0.000
102.1900 	28.0500 	0.000 	0.000 	-169.800 	33.800 	0.000
102.1900 	28.1300 	0.000 	0.000 	-169.800 	33.800 	0.000
102.1900 	28.2100 	0.000 	0.000 	-169.800 	33.800 	0.000
102.1900 	28.2900 	0.000 	0.000 	-169.800 	33.800 	0.000
102.1900 	28.3700 	0.000 	0.000 	-169.800 	33.800 	0.000
102.1900 	28.4500 	0.000 	0.000 	-169.800 	33.800 	0.000
102.1900 	28.5300 	0.000 	0.000 	-169.800 	33.800 	0.000
102.1900 	28.6100 	0.000 	0.000 	-169.800 	33.800 	0.000
102.1900 	28.6900 	0.000 	0.000 	-169.800 	33.800 	0.000
102.1900 	28.7700 	0.000 	0.000 	-169.800 	33.800 	0.000
102.1900 	28.8500 	0.000 	0.000 	-169.800 	33.800 	0.000
102.1900 	28.9300 	0.000 	0.000 	-169.800 	33.800 	0.000
102.1900 	29.0100 	0.000 	0.000 	-169.800 	33.800 	0.000
102.1900 	29.0900 	0.000 	0.000 	-169.800 	33.800 	0.000
102.1900 	29.1700 	0.000 	0.000 	-169.800 	33.800 	0.000
102.2700 	25.6500 	0.000 	0.000 	-169.800 	33.800 	0.000
102.2700 	25.7300 	0.000 	0.000 	-169.800 	33.800 	0.000
102.2700 	25.8100 	0.000 	0.000 	-169.800 	33.800 	0.000
102.2700 	25.8900 	0.000 	0.000 	-169.800 	33.800 	0.000
102.2700 	25.9700 	0.000 	0.000 	-169.800 	33.800 	0.000
102.2700 	26.0500 	0.000 	0.000 	-169.800 	33.800 	0.000
102.2700 	26.1300 	0.000 	0.000 	-169.800 	33.800 	0.000
102.2700 	26.2100 	0.000 	0.000 	-169.800 	33.800 	0.000
102.2700 	26.2900 	0.000 	0.000 	-169.800 	33.800 	0.000
102.2700 	26.3700 	0.000 	0.000 	-169.800 	33.800 	0.000
102.2700 	26.4500 	0.000 	0.000 	-169.800 	33.800 	0.000
102.2700 	26.5300 	0.000 	0.000 	-169.800 	33.800 	0.000
102.2700 	26.6100 	0.000 	0.000 	-169.800 	33.800 	0.000
102.2700 	26.6900 	0.000 	0.000 	-169.800 	33.800 	0.000
102.2700 	26.7700 	0.000 	0.000 	-169.800 	33.800 	0.000
102.2700 	26.8500 	0.000 	0.000 	-169.800 	33.800 	0.000
102.2700 	26.9300 	0.000 	0.000 	-169.800 	33.800 	0.000
102.2700 	27.0100 	0.000 	0.000 	-169.800 	33.800 	0.000
102.2700 	27.0900 	0.000 	0.000 	-169.800 	33.800 	0.000
102.2700 	27.1700 	0.000 	0.000 	-169.800 	33.800 	0.000
102.2700 	27.2500 	0.000 	0.000 	-169.800 	33.800 	0.000
102.2700 	27.3300 	0.000 	0.000 	-169.800 	33.800 	0.000
102.2700 	27.4100 	0.000 	0.000 	-169.800 	33.800 	0.000
102.2700 	27.4900 	0.000 	0.000 	-169.800 	33.800 	0.000
102.2700 	27.5700 	0.000 	0.000 	-169.800 	33.800 	0.000
102.2700 	27.6500 	0.000 	0.000 	-169.800 	33.800 	0.000
102.2700 	27.7300 	0.000 	0.000 	-169.800 	33.800 	0.000
102.2700 	27.8100 	0.000 	0.000 	-169.800 	33.800 	0.000
102.2700 	27.8900 	0.000 	0.000 	-169.800 	33.800 	0.000
102.2700 	27.9700 	0.000 	0.000 	-169.800 	33.800 	0.000
102.2700 	28.0500 	0.000 	0.000 	-169.800 	33.800 	0.000
102.2700 	28.1300 	0.000 	0.000 	-169.800 	33.800 	0.000
102.2700 	28.2100 	0.000 	0.000 	-169.800 	33.800 	0.000
102.2700 	28.2900 	0.000 	0.000 	-169.800 	33.800 	0.000
102.2700 	28.3700 	0.000 	0.000 	-169.800 	33.800 	0.000
102.2700 	28.4500 	0.000 	0.000 	-169.800 	33.800 	0.000
102.2700 	28.5300 	0.000 	0.000 	-169.800 	33.800 	0.000
102.2700 	28.6100 	0.000 	0.000 	-169.800 	33.800 	0.000
102.2700 	28.6900 	0.000 	0.000 	-169.800 	33.800 	0.000
102.2700 	28.7700 	0.000 	0.000 	-169.800 	33.800 	0.000
102.2700 	28.8500 	0.000 	0.000 	-169.800 	33.800 	0.000
102.2700 	28.9300 	0.000 	0.000 	-169.800 	33.800 	0.000
102.2700 	29.0100 	0.000 	0.000 	-169.800 	33.800 	0.000
102.2700 	29.0900 	0.000 	0.000 	-169.800 	33.800 	0.000
102.2700 	29.1700 	0.000 	0.000 	-169.800 	33.800 	0.000
102.3500 	25.8900 	0.000 	0.000 	-169.800 	33.800 	0.000
102.3500 	25.9700 	0.000 	0.000 	-169.800 	33.800 	0.000
102.3500 	26.0500 	0.000 	0.000 	-169.800 	33.800 	0.000
102.3500 	26.1300 	0.000 	0.000 	-169.800 	33.800 	0.000
102.3500 	26.2100 	0.000 	0.000 	-169.800 	33.800 	0.000
102.3500 	26.2900 	0.000 	0.000 	-169.800 	33.800 	0.000
102.3500 	26.3700 	0.000 	0.000 	-169.800 	33.800 	0.000
102.3500 	26.4500 	0.000 	0.000 	-169.800 	33.800 	0.000
102.3500 	26.5300 	0.000 	0.000 	-169.800 	33.800 	0.000
102.3500 	26.6100 	0.000 	0.000 	-169.800 	33.800 	0.000
102.3500 	26.6900 	0.000 	0.000 	-169.800 	33.800 	0.000
102.3500 	26.7700 	0.000 	0.000 	-169.800 	33.800 	0.000
102.3500 	26.8500 	0.000 	0.000 	-169.800 	33.800 	0.000
102.3500 	26.9300 	0.000 	0.000 	-169.800 	33.800 	0.000
102.3500 	27.0100 	0.000 	0.000 	-169.800 	33.800 	0.000
102.3500 	27.0900 	0.000 	0.000 	-169.800 	33.800 	0.000
102.3500 	27.1700 	0.000 	0.000 	-169.800 	33.800 	0.000
102.3500 	27.2500 	0.000 	0.000 	-169.800 	33.800 	0.000
102.3500 	27.3300 	0.000 	0.000 	-169.800 	33.800 	0.000
102.3500 	27.4100 	0.000 	0.000 	-169.800 	33.800 	0.000
102.3500 	27.4900 	0.000 	0.000 	-169.800 	33.800 	0.000
102.3500 	27.5700 	0.000 	0.000 	-169.800 	33.800 	0.000
102.3500 	27.6500 	0.000 	0.000 	-169.800 	33.800 	0.000
102.3500 	27.7300 	0.000 	0.000 	-169.800 	33.800 	0.000
102.3500 	27.8100 	0.000 	0.000 	-169.800 	33.800 	0.000
102.3500 	27.8900 	0.000 	0.000 	-169.800 	33.800 	0.000
102.3500 	27.9700 	0.000 	0.000 	-169.800 	33.800 	0.000
102.3500 	28.0500 	0.000 	0.000 	-169.800 	33.800 	0.000
102.3500 	28.1300 	0.000 	0.000 	-169.800 	33.800 	0.000
102.3500 	28.2100 	0.000 	0.000 	-169.800 	33.800 	0.000
102.3500 	28.2900 	0.000 	0.000 	-169.800 	33.800 	0.000
102.3500 	28.3700 	0.000 	0.000 	-169.800 	33.800 	0.000
102.3500 	28.4500 	0.000 	0.000 	-169.800 	33.800 	0.000
102.3500 	28.5300 	0.000 	0.000 	-169.800 	33.800 	0.000
102.3500 	28.6100 	0.000 	0.000 	-169.800 	33.800 	0.000
102.3500 	28.6900 	0.000 	0.000 	-169.800 	33.800 	0.000
102.3500 	28.7700 	0.000 	0.000 	-169.800 	33.800 	0.000
102.3500 	28.8500 	0.000 	0.000 	-169.800 	33.800 	0.000
102.3500 	28.9300 	0.000 	0.000 	-169.800 	33.800 	0.000
102.3500 	29.0100 	0.000 	0.000 	-169.800 	33.800 	0.000
102.3500 	29.0900 	0.000 	0.000 	-169.800 	33.800 	0.000
102.4300 	26.2100 	0.000 	0.000 	-169.800 	33.800 	0.000
102.4300 	26.2900 	0.000 	0.000 	-169.800 	33.800 	0.000
102.4300 	26.3700 	0.000 	0.000 	-169.800 	33.800 	0.000
102.4300 	26.4500 	0.000 	0.000 	-169.800 	33.800 	0.000
102.4300 	26.5300 	0.000 	0.000 	-169.800 	33.800 	0.000
102.4300 	26.6100 	0.000 	0.000 	-169.800 	33.800 	0.000
102.4300 	26.6900 	0.000 	0.000 	-169.800 	33.800 	0.000
102.4300 	26.7700 	0.000 	0.000 	-169.800 	33.800 	0.000
102.4300 	26.8500 	0.000 	0.000 	-169.800 	33.800 	0.000
102.4300 	26.9300 	0.000 	0.000 	-169.800 	33.800 	0.000
102.4300 	27.0100 	0.000 	0.000 	-169.800 	33.800 	0.000
102.4300 	27.0900 	0.000 	0.000 	-169.800 	33.800 	0.000
102.4300 	27.1700 	0.000 	0.000 	-169.800 	33.800 	0.000
102.4300 	27.2500 	0.000 	0.000 	-169.800 	33.800 	0.000
102.4300 	27.3300 	0.000 	0.000 	-169.800 	33.800 	0.000
102.4300 	27.4100 	0.000 	0.000 	-169.800 	33.800 	0.000
102.4300 	27.4900 	0.000 	0.000 	-169.800 	33.800 	0.000
102.4300 	27.5700 	0.000 	0.000 	-169.800 	33.800 	0.000
102.4300 	27.6500 	0.000 	0.000 	-169.800 	33.800 	0.000
102.4300 	27.7300 	0.000 	0.000 	-169.800 	33.800 	0.000
102.4300 	27.8100 	0.000 	0.000 	-169.800 	33.800 	0.000
102.4300 	27.8900 	0.000 	0.000 	-169.800 	33.800 	0.000
102.4300 	27.9700 	0.000 	0.000 	-169.800 	33.800 	0.000
102.4300 	28.0500 	0.000 	0.000 	-169.800 	33.800 	0.000
102.4300 	28.1300 	0.000 	0.000 	-169.800 	33.800 	0.000
102.4300 	28.2100 	0.000 	0.000 	-169.800 	33.800 	0.000
102.4300 	28.2900 	0.000 	0.000 	-169.800 	33.800 	0.000
102.4300 	28.3700 	0.000 	0.000 	-169.800 	33.800 	0.000
102.4300 	28.4500 	0.000 	0.000 	-169.800 	33.800 	0.000
102.4300 	28.5300 	0.000 	0.000 	-169.800 	33.800 	0.000
102.4300 	28.6100 	0.000 	0.000 	-169.800 	33.800 	0.000
102.4300 	28.6900 	0.000 	0.000 	-169.800 	33.800 	0.000
102.4300 	28.7700 	0.000 	0.000 	-169.800 	33.800 	0.000
102.4300 	28.8500 	0.000 	0.000 	-169.800 	33.800 	0.000
102.5100 	26.3700 	0.000 	0.000 	-169.800 	33.800 	0.000
102.5100 	26.4500 	0.000 	0.000 	-169.800 	33.800 	0.000
102.5100 	26.5300 	0.000 	0.000 	-169.800 	33.800 	0.000
102.5100 	26.6100 	0.000 	0.000 	-169.800 	33.800 	0.000
102.5100 	26.6900 	0.000 	0.000 	-169.800 	33.800 	0.000
102.5100 	26.7700 	0.000 	0.000 	-169.800 	33.800 	0.000
102.5100 	26.8500 	0.000 	0.000 	-169.800 	33.800 	0.000
102.5100 	26.9300 	0.000 	0.000 	-169.800 	33.800 	0.000
102.5100 	27.0100 	0.000 	0.000 	-169.800 	33.800 	0.000
102.5100 	27.0900 	0.000 	0.000 	-169.800 	33.800 	0.000
102.5100 	27.1700 	0.000 	0.000 	-169.800 	33.800 	0.000
102.5100 	27.2500 	0.000 	0.000 	-169.800 	33.800 	0.000
102.5100 	27.3300 	0.000 	0.000 	-169.800 	33.800 	0.000
102.5100 	27.4100 	0.000 	0.000 	-169.800 	33.800 	0.000
102.5100 	27.4900 	0.000 	0.000 	-169.800 	33.800 	0.000
102.5100 	27.5700 	0.000 	0.000 	-169.800 	33.800 	0.000
102.5100 	27.6500 	0.000 	0.000 	-169.800 	33.800 	0.000
102.5100 	27.7300 	0.000 	0.000 	-169.800 	33.800 	0.000
102.5100 	27.8100 	0.000 	0.000 	-169.800 	33.800 	0.000
102.5100 	27.8900 	0.000 	0.000 	-169.800 	33.800 	0.000
102.5100 	27.9700 	0.000 	0.000 	-169.800 	33.800 	0.000
102.5100 	28.0500 	0.000 	0.000 	-169.800 	33.800 	0.000
102.5100 	28.1300 	0.000 	0.000 	-169.800 	33.800 	0.000
102.5100 	28.2100 	0.000 	0.000 	-169.800 	33.800 	0.000
102.5100 	28.2900 	0.000 	0.000 	-169.800 	33.800 	0.000
102.5100 	28.3700 	0.000 	0.000 	-169.800 	33.800 	0.000
102.5100 	28.4500 	0.000 	0.000 	-169.800 	33.800 	0.000
102.5100 	28.5300 	0.000 	0.000 	-169.800 	33.800 	0.000
102.5100 	28.6100 	0.000 	0.000 	-169.800 	33.800 	0.000
102.5100 	28.6900 	0.000 	0.000 	-169.800 	33.800 	0.000
102.5900 	26.5300 	0.000 	0.000 	-169.800 	33.800 	0.000
102.5900 	26.6100 	0.000 	0.000 	-169.800 	33.800 	0.000
102.5900 	26.6900 	0.000 	0.000 	-169.800 	33.800 	0.000
102.5900 	26.7700 	0.000 	0.000 	-169.800 	33.800 	0.000
102.5900 	26.8500 	0.000 	0.000 	-169.800 	33.800 	0.000
102.5900 	26.9300 	0.000 	0.000 	-169.800 	33.800 	0.000
102.5900 	27.0100 	0.000 	0.000 	-169.800 	33.800 	0.000
102.5900 	27.0900 	0.000 	0.000 	-169.800 	33.800 	0.000
102.5900 	27.1700 	0.000 	0.000 	-169.800 	33.800 	0.000
102.5900 	27.2500 	0.000 	0.000 	-169.800 	33.800 	0.000
102.5900 	27.3300 	0.000 	0.000 	-169.800 	33.800 	0.000
102.5900 	27.4100 	0.000 	0.000 	-169.800 	33.800 	0.000
102.5900 	27.4900 	0.000 	0.000 	-169.800 	33.800 	0.000
102.5900 	27.5700 	0.000 	0.000 	-169.800 	33.800 	0.000
102.5900 	27.6500 	0.000 	0.000 	-169.800 	33.800 	0.000
102.5900 	27.7300 	0.000 	0.000 	-169.800 	33.800 	0.000
102.5900 	27.8100 	0.000 	0.000 	-169.800 	33.800 	0.000
102.5900 	27.8900 	0.000 	0.000 	-169.800 	33.800 	0.000
102.5900 	27.9700 	0.000 	0.000 	-169.800 	33.800 	0.000
102.5900 	28.0500 	0.000 	0.000 	-169.800 	33.800 	0.000
102.5900 	28.1300 	0.000 	0.000 	-169.800 	33.800 	0.000
102.5900 	28.2100 	0.000 	0.000 	-169.800 	33.800 	0.000
102.5900 	28.2900 	0.000 	0.000 	-169.800 	33.800 	0.000
102.5900 	28.3700 	0.000 	0.000 	-169.800 	33.800 	0.000
102.5900 	28.4500 	0.000 	0.000 	-169.800 	33.800 	0.000
102.5900 	28.5300 	0.000 	0.000 	-169.800 	33.800 	0.000
102.6700 	26.6900 	0.000 	0.000 	-169.800 	33.800 	0.000
102.6700 	26.7700 	0.000 	0.000 	-169.800 	33.800 	0.000
102.6700 	26.8500 	0.000 	0.000 	-169.800 	33.800 	0.000
102.6700 	26.9300 	0.000 	0.000 	-169.800 	33.800 	0.000
102.6700 	27.0100 	0.000 	0.000 	-169.800 	33.800 	0.000
102.6700 	27.0900 	0.000 	0.000 	-169.800 	33.800 	0.000
102.6700 	27.1700 	0.000 	0.000 	-169.800 	33.800 	0.000
102.6700 	27.2500 	0.000 	0.000 	-169.800 	33.800 	0.000
102.6700 	27.3300 	0.000 	0.000 	-169.800 	33.800 	0.000
102.6700 	27.4100 	0.000 	0.000 	-169.800 	33.800 	0.000
102.6700 	27.4900 	0.000 	0.000 	-169.800 	33.800 	0.000
102.6700 	27.5700 	0.000 	0.000 	-169.800 	33.800 	0.000
102.6700 	27.6500 	0.000 	0.000 	-169.800 	33.800 	0.000
102.6700 	27.7300 	0.000 	0.000 	-169.800 	33.800 	0.000
102.6700 	27.8100 	0.000 	0.000 	-169.800 	33.800 	0.000
102.6700 	27.8900 	0.000 	0.000 	-169.800 	33.800 	0.000
102.6700 	27.9700 	0.000 	0.000 	-169.800 	33.800 	0.000
102.6700 	28.0500 	0.000 	0.000 	-169.800 	33.800 	0.000
102.6700 	28.1300 	0.000 	0.000 	-169.800 	33.800 	0.000
102.6700 	28.2100 	0.000 	0.000 	-169.800 	33.800 	0.000
102.6700 	28.2900 	0.000 	0.000 	-169.800 	33.800 	0.000
102.7500 	26.7700 	0.000 	0.000 	-169.800 	33.800 	0.000
102.7500 	26.8500 	0.000 	0.000 	-169.800 	33.800 	0.000
102.7500 	26.9300 	0.000 	0.000 	-169.800 	33.800 	0.000
102.7500 	27.0100 	0.000 	0.000 	-169.800 	33.800 	0.000
102.7500 	27.0900 	0.000 	0.000 	-169.800 	33.800 	0.000
102.7500 	27.1700 	0.000 	0.000 	-169.800 	33.800 	0.000
102.7500 	27.2500 	0.000 	0.000 	-169.800 	33.800 	0.000
102.7500 	27.3300 	0.000 	0.000 	-169.800 	33.800 	0.000
102.7500 	27.4100 	0.000 	0.000 	-169.800 	33.800 	0.000
102.7500 	27.4900 	0.000 	0.000 	-169.800 	33.800 	0.000
102.7500 	27.5700 	0.000 	0.000 	-169.800 	33.800 	0.000
102.7500 	27.6500 	0.000 	0.000 	-169.800 	33.800 	0.000
102.7500 	27.7300 	0.000 	0.000 	-169.800 	33.800 	0.000
102.7500 	27.8100 	0.000 	0.000 	-169.800 	33.800 	0.000
102.7500 	27.8900 	0.000 	0.000 	-169.800 	33.800 	0.000
102.7500 	27.9700 	0.000 	0.000 	-169.800 	33.800 	0.000
102.7500 	28.0500 	0.000 	0.000 	-169.800 	33.800 	0.000
102.7500 	28.1300 	0.000 	0.000 	-169.800 	33.800 	0.000
102.8300 	26.9300 	0.000 	0.000 	-169.800 	33.800 	0.000
102.8300 	27.0100 	0.000 	0.000 	-169.800 	33.800 	0.000
102.8300 	27.0900 	0.000 	0.000 	-169.800 	33.800 	0.000
102.8300 	27.1700 	0.000 	0.000 	-169.800 	33.800 	0.000
102.8300 	27.2500 	0.000 	0.000 	-169.800 	33.800 	0.000
102.8300 	27.3300 	0.000 	0.000 	-169.800 	33.800 	0.000
102.8300 	27.4100 	0.000 	0.000 	-169.800 	33.800 	0.000
102.8300 	27.4900 	0.000 	0.000 	-169.800 	33.800 	0.000
102.8300 	27.5700 	0.000 	0.000 	-169.800 	33.800 	0.000
102.8300 	27.6500 	0.000 	0.000 	-169.800 	33.800 	0.000
102.8300 	27.7300 	0.000 	0.000 	-169.800 	33.800 	0.000
102.8300 	27.8100 	0.000 	0.000 	-169.800 	33.800 	0.000
102.8300 	27.8900 	0.000 	0.000 	-169.800 	33.800 	0.000
102.8300 	27.9700 	0.000 	0.000 	-169.800 	33.800 	0.000
102.9100 	27.0900 	0.000 	0.000 	-169.800 	33.800 	0.000
102.9100 	27.1700 	0.000 	0.000 	-169.800 	33.800 	0.000
102.9100 	27.2500 	0.000 	0.000 	-169.800 	33.800 	0.000
102.9100 	27.3300 	0.000 	0.000 	-169.800 	33.800 	0.000
102.9100 	27.4100 	0.000 	0.000 	-169.800 	33.800 	0.000
102.9100 	27.4900 	0.000 	0.000 	-169.800 	33.800 	0.000
102.9100 	27.5700 	0.000 	0.000 	-169.800 	33.800 	0.000
102.9100 	27.6500 	0.000 	0.000 	-169.800 	33.800 	0.000
102.9100 	27.7300 	0.000 	0.000 	-169.800 	33.800 	0.000
102.9900 	27.1700 	0.000 	0.000 	-169.800 	33.800 	0.000
102.9900 	27.2500 	0.000 	0.000 	-169.800 	33.800 	0.000
102.9900 	27.3300 	0.000 	0.000 	-169.800 	33.800 	0.000
102.9900 	27.4100 	0.000 	0.000 	-169.800 	33.800 	0.000
102.9900 	27.4900 	0.000 	0.000 	-169.800 	33.800 	0.000
102.9900 	27.5700 	0.000 	0.000 	-169.800 	33.800 	0.000
103.0700 	27.3300 	0.000 	0.000 	-169.800 	33.800 	0.000
103.0700 	27.4100 	0.000 	0.000 	-169.800 	33.800 	0.000
