	Long(deg) 	Lati(deg) 	H(m) 	LOS(mm/yr) 	Azi(deg) 	Inc(deg) 	Sig(mm/yr) 
101.7100 	23.6500 	0.000 	0.000 	-10.300 	33.800 	0.000
101.7100 	23.7300 	0.000 	0.000 	-10.300 	33.800 	0.000
101.7100 	23.8100 	0.000 	0.000 	-10.300 	33.800 	0.000
101.7900 	23.6500 	0.000 	0.000 	-10.300 	33.800 	0.000
101.7900 	23.7300 	0.000 	0.000 	-10.300 	33.800 	0.000
101.7900 	23.8100 	0.000 	0.000 	-10.300 	33.800 	0.000
101.7900 	23.8900 	0.000 	0.000 	-10.300 	33.800 	0.000
101.7900 	23.9700 	0.000 	0.000 	-10.300 	33.800 	0.000
101.7900 	24.0500 	0.000 	0.000 	-10.300 	33.800 	0.000
101.8700 	23.6500 	0.000 	0.000 	-10.300 	33.800 	0.000
101.8700 	23.7300 	0.000 	0.000 	-10.300 	33.800 	0.000
101.8700 	23.8100 	0.000 	0.000 	-10.300 	33.800 	0.000
101.8700 	23.8900 	0.000 	0.000 	-10.300 	33.800 	0.000
101.8700 	23.9700 	0.000 	0.000 	-10.300 	33.800 	0.000
101.8700 	24.0500 	0.000 	0.000 	-10.300 	33.800 	0.000
101.8700 	24.1300 	0.000 	0.000 	-10.300 	33.800 	0.000
101.8700 	24.2100 	0.000 	0.000 	-10.300 	33.800 	0.000
101.8700 	24.2900 	0.000 	0.000 	-10.300 	33.800 	0.000
101.9500 	23.6500 	0.000 	0.000 	-10.300 	33.800 	0.000
101.9500 	23.7300 	0.000 	0.000 	-10.300 	33.800 	0.000
101.9500 	23.8100 	0.000 	0.000 	-10.300 	33.800 	0.000
101.9500 	23.8900 	0.000 	0.000 	-10.300 	33.800 	0.000
101.9500 	23.9700 	0.000 	0.000 	-10.300 	33.800 	0.000
101.9500 	24.0500 	0.000 	0.000 	-10.300 	33.800 	0.000
101.9500 	24.1300 	0.000 	0.000 	-10.300 	33.800 	0.000
101.9500 	24.2100 	0.000 	0.000 	-10.300 	33.800 	0.000
101.9500 	24.2900 	0.000 	0.000 	-10.300 	33.800 	0.000
101.9500 	24.3700 	0.000 	0.000 	-10.300 	33.800 	0.000
101.9500 	24.4500 	0.000 	0.000 	-10.300 	33.800 	0.000
101.9500 	24.5300 	0.000 	0.000 	-10.300 	33.800 	0.000
102.0300 	23.6500 	0.000 	0.000 	-10.300 	33.800 	0.000
102.0300 	23.7300 	0.000 	0.000 	-10.300 	33.800 	0.000
102.0300 	23.8100 	0.000 	0.000 	-10.300 	33.800 	0.000
102.0300 	23.8900 	0.000 	0.000 	-10.300 	33.800 	0.000
102.0300 	23.9700 	0.000 	0.000 	-10.300 	33.800 	0.000
102.0300 	24.0500 	0.000 	0.000 	-10.300 	33.800 	0.000
102.0300 	24.1300 	0.000 	0.000 	-10.300 	33.800 	0.000
102.0300 	24.2100 	0.000 	0.000 	-10.300 	33.800 	0.000
102.0300 	24.2900 	0.000 	0.000 	-10.300 	33.800 	0.000
102.0300 	24.3700 	0.000 	0.000 	-10.300 	33.800 	0.000
102.0300 	24.4500 	0.000 	0.000 	-10.300 	33.800 	0.000
102.0300 	24.5300 	0.000 	0.000 	-10.300 	33.800 	0.000
102.0300 	24.6100 	0.000 	0.000 	-10.300 	33.800 	0.000
102.0300 	24.6900 	0.000 	0.000 	-10.300 	33.800 	0.000
102.0300 	24.7700 	0.000 	0.000 	-10.300 	33.800 	0.000
102.1100 	23.6500 	0.000 	0.000 	-10.300 	33.800 	0.000
102.1100 	23.7300 	0.000 	0.000 	-10.300 	33.800 	0.000
102.1100 	23.8100 	0.000 	0.000 	-10.300 	33.800 	0.000
102.1100 	23.8900 	0.000 	0.000 	-10.300 	33.800 	0.000
102.1100 	23.9700 	0.000 	0.000 	-10.300 	33.800 	0.000
102.1100 	24.0500 	0.000 	0.000 	-10.300 	33.800 	0.000
102.1100 	24.1300 	0.000 	0.000 	-10.300 	33.800 	0.000
102.1100 	24.2100 	0.000 	0.000 	-10.300 	33.800 	0.000
102.1100 	24.2900 	0.000 	0.000 	-10.300 	33.800 	0.000
102.1100 	24.3700 	0.000 	0.000 	-10.300 	33.800 	0.000
102.1100 	24.4500 	0.000 	0.000 	-10.300 	33.800 	0.000
102.1100 	24.5300 	0.000 	0.000 	-10.300 	33.800 	0.000
102.1100 	24.6100 	0.000 	0.000 	-10.300 	33.800 	0.000
102.1100 	24.6900 	0.000 	0.000 	-10.300 	33.800 	0.000
102.1100 	24.7700 	0.000 	0.000 	-10.300 	33.800 	0.000
102.1100 	24.8500 	0.000 	0.000 	-10.300 	33.800 	0.000
102.1100 	24.9300 	0.000 	0.000 	-10.300 	33.800 	0.000
102.1100 	25.0100 	0.000 	0.000 	-10.300 	33.800 	0.000
102.1900 	23.6500 	0.000 	0.000 	-10.300 	33.800 	0.000
102.1900 	23.7300 	0.000 	0.000 	-10.300 	33.800 	0.000
102.1900 	23.8100 	0.000 	0.000 	-10.300 	33.800 	0.000
102.1900 	23.8900 	0.000 	0.000 	-10.300 	33.800 	0.000
102.1900 	23.9700 	0.000 	0.000 	-10.300 	33.800 	0.000
102.1900 	24.0500 	0.000 	0.000 	-10.300 	33.800 	0.000
102.1900 	24.1300 	0.000 	0.000 	-10.300 	33.800 	0.000
102.1900 	24.2100 	0.000 	0.000 	-10.300 	33.800 	0.000
102.1900 	24.2900 	0.000 	0.000 	-10.300 	33.800 	0.000
102.1900 	24.3700 	0.000 	0.000 	-10.300 	33.800 	0.000
102.1900 	24.4500 	0.000 	0.000 	-10.300 	33.800 	0.000
102.1900 	24.5300 	0.000 	0.000 	-10.300 	33.800 	0.000
102.1900 	24.6100 	0.000 	0.000 	-10.300 	33.800 	0.000
102.1900 	24.6900 	0.000 	0.000 	-10.300 	33.800 	0.000
102.1900 	24.7700 	0.000 	0.000 	-10.300 	33.800 	0.000
102.1900 	24.8500 	0.000 	0.000 	-10.300 	33.800 	0.000
102.1900 	24.9300 	0.000 	0.000 	-10.300 	33.800 	0.000
102.1900 	25.0100 	0.000 	0.000 	-10.300 	33.800 	0.000
102.1900 	25.0900 	0.000 	0.000 	-10.300 	33.800 	0.000
102.1900 	25.1700 	0.000 	0.000 	-10.300 	33.800 	0.000
102.1900 	25.2500 	0.000 	0.000 	-10.300 	33.800 	0.000
102.2700 	23.6500 	0.000 	0.000 	-10.300 	33.800 	0.000
102.2700 	23.7300 	0.000 	0.000 	-10.300 	33.800 	0.000
102.2700 	23.8100 	0.000 	0.000 	-10.300 	33.800 	0.000
102.2700 	23.8900 	0.000 	0.000 	-10.300 	33.800 	0.000
102.2700 	23.9700 	0.000 	0.000 	-10.300 	33.800 	0.000
102.2700 	24.0500 	0.000 	0.000 	-10.300 	33.800 	0.000
102.2700 	24.1300 	0.000 	0.000 	-10.300 	33.800 	0.000
102.2700 	24.2100 	0.000 	0.000 	-10.300 	33.800 	0.000
102.2700 	24.2900 	0.000 	0.000 	-10.300 	33.800 	0.000
102.2700 	24.3700 	0.000 	0.000 	-10.300 	33.800 	0.000
102.2700 	24.4500 	0.000 	0.000 	-10.300 	33.800 	0.000
102.2700 	24.5300 	0.000 	0.000 	-10.300 	33.800 	0.000
102.2700 	24.6100 	0.000 	0.000 	-10.300 	33.800 	0.000
102.2700 	24.6900 	0.000 	0.000 	-10.300 	33.800 	0.000
102.2700 	24.7700 	0.000 	0.000 	-10.300 	33.800 	0.000
102.2700 	24.8500 	0.000 	0.000 	-10.300 	33.800 	0.000
102.2700 	24.9300 	0.000 	0.000 	-10.300 	33.800 	0.000
102.2700 	25.0100 	0.000 	0.000 	-10.300 	33.800 	0.000
102.2700 	25.0900 	0.000 	0.000 	-10.300 	33.800 	0.000
102.2700 	25.1700 	0.000 	0.000 	-10.300 	33.800 	0.000
102.2700 	25.2500 	0.000 	0.000 	-10.300 	33.800 	0.000
102.2700 	25.3300 	0.000 	0.000 	-10.300 	33.800 	0.000
102.2700 	25.4100 	0.000 	0.000 	-10.300 	33.800 	0.000
102.2700 	25.4900 	0.000 	0.000 	-10.300 	33.800 	0.000
102.2700 	25.5700 	0.000 	0.000 	-10.300 	33.800 	0.000
102.3500 	23.6500 	0.000 	0.000 	-10.300 	33.800 	0.000
102.3500 	23.7300 	0.000 	0.000 	-10.300 	33.800 	0.000
102.3500 	23.8100 	0.000 	0.000 	-10.300 	33.800 	0.000
102.3500 	23.8900 	0.000 	0.000 	-10.300 	33.800 	0.000
102.3500 	23.9700 	0.000 	0.000 	-10.300 	33.800 	0.000
102.3500 	24.0500 	0.000 	0.000 	-10.300 	33.800 	0.000
102.3500 	24.1300 	0.000 	0.000 	-10.300 	33.800 	0.000
102.3500 	24.2100 	0.000 	0.000 	-10.300 	33.800 	0.000
102.3500 	24.2900 	0.000 	0.000 	-10.300 	33.800 	0.000
102.3500 	24.3700 	0.000 	0.000 	-10.300 	33.800 	0.000
102.3500 	24.4500 	0.000 	0.000 	-10.300 	33.800 	0.000
102.3500 	24.5300 	0.000 	0.000 	-10.300 	33.800 	0.000
102.3500 	24.6100 	0.000 	0.000 	-10.300 	33.800 	0.000
102.3500 	24.6900 	0.000 	0.000 	-10.300 	33.800 	0.000
102.3500 	24.7700 	0.000 	0.000 	-10.300 	33.800 	0.000
102.3500 	24.8500 	0.000 	0.000 	-10.300 	33.800 	0.000
102.3500 	24.9300 	0.000 	0.000 	-10.300 	33.800 	0.000
102.3500 	25.0100 	0.000 	0.000 	-10.300 	33.800 	0.000
102.3500 	25.0900 	0.000 	0.000 	-10.300 	33.800 	0.000
102.3500 	25.1700 	0.000 	0.000 	-10.300 	33.800 	0.000
102.3500 	25.2500 	0.000 	0.000 	-10.300 	33.800 	0.000
102.3500 	25.3300 	0.000 	0.000 	-10.300 	33.800 	0.000
102.3500 	25.4100 	0.000 	0.000 	-10.300 	33.800 	0.000
102.3500 	25.4900 	0.000 	0.000 	-10.300 	33.800 	0.000
102.3500 	25.5700 	0.000 	0.000 	-10.300 	33.800 	0.000
102.3500 	25.6500 	0.000 	0.000 	-10.300 	33.800 	0.000
102.3500 	25.7300 	0.000 	0.000 	-10.300 	33.800 	0.000
102.3500 	25.8100 	0.000 	0.000 	-10.300 	33.800 	0.000
102.4300 	23.6500 	0.000 	0.000 	-10.300 	33.800 	0.000
102.4300 	23.7300 	0.000 	0.000 	-10.300 	33.800 	0.000
102.4300 	23.8100 	0.000 	0.000 	-10.300 	33.800 	0.000
102.4300 	23.8900 	0.000 	0.000 	-10.300 	33.800 	0.000
102.4300 	23.9700 	0.000 	0.000 	-10.300 	33.800 	0.000
102.4300 	24.0500 	0.000 	0.000 	-10.300 	33.800 	0.000
102.4300 	24.1300 	0.000 	0.000 	-10.300 	33.800 	0.000
102.4300 	24.2100 	0.000 	0.000 	-10.300 	33.800 	0.000
102.4300 	24.2900 	0.000 	0.000 	-10.300 	33.800 	0.000
102.4300 	24.3700 	0.000 	0.000 	-10.300 	33.800 	0.000
102.4300 	24.4500 	0.000 	0.000 	-10.300 	33.800 	0.000
102.4300 	24.5300 	0.000 	0.000 	-10.300 	33.800 	0.000
102.4300 	24.6100 	0.000 	0.000 	-10.300 	33.800 	0.000
102.4300 	24.6900 	0.000 	0.000 	-10.300 	33.800 	0.000
102.4300 	24.7700 	0.000 	0.000 	-10.300 	33.800 	0.000
102.4300 	24.8500 	0.000 	0.000 	-10.300 	33.800 	0.000
102.4300 	24.9300 	0.000 	0.000 	-10.300 	33.800 	0.000
102.4300 	25.0100 	0.000 	0.000 	-10.300 	33.800 	0.000
102.4300 	25.0900 	0.000 	0.000 	-10.300 	33.800 	0.000
102.4300 	25.1700 	0.000 	0.000 	-10.300 	33.800 	0.000
102.4300 	25.2500 	0.000 	0.000 	-10.300 	33.800 	0.000
102.4300 	25.3300 	0.000 	0.000 	-10.300 	33.800 	0.000
102.4300 	25.4100 	0.000 	0.000 	-10.300 	33.800 	0.000
102.4300 	25.4900 	0.000 	0.000 	-10.300 	33.800 	0.000
102.4300 	25.5700 	0.000 	0.000 	-10.300 	33.800 	0.000
102.4300 	25.6500 	0.000 	0.000 	-10.300 	33.800 	0.000
102.4300 	25.7300 	0.000 	0.000 	-10.300 	33.800 	0.000
102.4300 	25.8100 	0.000 	0.000 	-10.300 	33.800 	0.000
102.4300 	25.8900 	0.000 	0.000 	-10.300 	33.800 	0.000
102.4300 	25.9700 	0.000 	0.000 	-10.300 	33.800 	0.000
102.4300 	26.0500 	0.000 	0.000 	-10.300 	33.800 	0.000
102.4300 	26.1300 	0.000 	0.000 	-10.300 	33.800 	0.000
102.5100 	23.6500 	0.000 	0.000 	-10.300 	33.800 	0.000
102.5100 	23.7300 	0.000 	0.000 	-10.300 	33.800 	0.000
102.5100 	23.8100 	0.000 	0.000 	-10.300 	33.800 	0.000
102.5100 	23.8900 	0.000 	0.000 	-10.300 	33.800 	0.000
102.5100 	23.9700 	0.000 	0.000 	-10.300 	33.800 	0.000
102.5100 	24.0500 	0.000 	0.000 	-10.300 	33.800 	0.000
102.5100 	24.1300 	0.000 	0.000 	-10.300 	33.800 	0.000
102.5100 	24.2100 	0.000 	0.000 	-10.300 	33.800 	0.000
102.5100 	24.2900 	0.000 	0.000 	-10.300 	33.800 	0.000
102.5100 	24.3700 	0.000 	0.000 	-10.300 	33.800 	0.000
102.5100 	24.4500 	0.000 	0.000 	-10.300 	33.800 	0.000
102.5100 	24.5300 	0.000 	0.000 	-10.300 	33.800 	0.000
102.5100 	24.6100 	0.000 	0.000 	-10.300 	33.800 	0.000
102.5100 	24.6900 	0.000 	0.000 	-10.300 	33.800 	0.000
102.5100 	24.7700 	0.000 	0.000 	-10.300 	33.800 	0.000
102.5100 	24.8500 	0.000 	0.000 	-10.300 	33.800 	0.000
102.5100 	24.9300 	0.000 	0.000 	-10.300 	33.800 	0.000
102.5100 	25.0100 	0.000 	0.000 	-10.300 	33.800 	0.000
102.5100 	25.0900 	0.000 	0.000 	-10.300 	33.800 	0.000
102.5100 	25.1700 	0.000 	0.000 	-10.300 	33.800 	0.000
102.5100 	25.2500 	0.000 	0.000 	-10.300 	33.800 	0.000
102.5100 	25.3300 	0.000 	0.000 	-10.300 	33.800 	0.000
102.5100 	25.4100 	0.000 	0.000 	-10.300 	33.800 	0.000
102.5100 	25.4900 	0.000 	0.000 	-10.300 	33.800 	0.000
102.5100 	25.5700 	0.000 	0.000 	-10.300 	33.800 	0.000
102.5100 	25.6500 	0.000 	0.000 	-10.300 	33.800 	0.000
102.5100 	25.7300 	0.000 	0.000 	-10.300 	33.800 	0.000
102.5100 	25.8100 	0.000 	0.000 	-10.300 	33.800 	0.000
102.5100 	25.8900 	0.000 	0.000 	-10.300 	33.800 	0.000
102.5100 	25.9700 	0.000 	0.000 	-10.300 	33.800 	0.000
102.5100 	26.0500 	0.000 	0.000 	-10.300 	33.800 	0.000
102.5100 	26.1300 	0.000 	0.000 	-10.300 	33.800 	0.000
102.5100 	26.2100 	0.000 	0.000 	-10.300 	33.800 	0.000
102.5100 	26.2900 	0.000 	0.000 	-10.300 	33.800 	0.000
102.5900 	23.6500 	0.000 	0.000 	-10.300 	33.800 	0.000
102.5900 	23.7300 	0.000 	0.000 	-10.300 	33.800 	0.000
102.5900 	23.8100 	0.000 	0.000 	-10.300 	33.800 	0.000
102.5900 	23.8900 	0.000 	0.000 	-10.300 	33.800 	0.000
102.5900 	23.9700 	0.000 	0.000 	-10.300 	33.800 	0.000
102.5900 	24.0500 	0.000 	0.000 	-10.300 	33.800 	0.000
102.5900 	24.1300 	0.000 	0.000 	-10.300 	33.800 	0.000
102.5900 	24.2100 	0.000 	0.000 	-10.300 	33.800 	0.000
102.5900 	24.2900 	0.000 	0.000 	-10.300 	33.800 	0.000
102.5900 	24.3700 	0.000 	0.000 	-10.300 	33.800 	0.000
102.5900 	24.4500 	0.000 	0.000 	-10.300 	33.800 	0.000
102.5900 	24.5300 	0.000 	0.000 	-10.300 	33.800 	0.000
102.5900 	24.6100 	0.000 	0.000 	-10.300 	33.800 	0.000
102.5900 	24.6900 	0.000 	0.000 	-10.300 	33.800 	0.000
102.5900 	24.7700 	0.000 	0.000 	-10.300 	33.800 	0.000
102.5900 	24.8500 	0.000 	0.000 	-10.300 	33.800 	0.000
102.5900 	24.9300 	0.000 	0.000 	-10.300 	33.800 	0.000
102.5900 	25.0100 	0.000 	0.000 	-10.300 	33.800 	0.000
102.5900 	25.0900 	0.000 	0.000 	-10.300 	33.800 	0.000
102.5900 	25.1700 	0.000 	0.000 	-10.300 	33.800 	0.000
102.5900 	25.2500 	0.000 	0.000 	-10.300 	33.800 	0.000
102.5900 	25.3300 	0.000 	0.000 	-10.300 	33.800 	0.000
102.5900 	25.4100 	0.000 	0.000 	-10.300 	33.800 	0.000
102.5900 	25.4900 	0.000 	0.000 	-10.300 	33.800 	0.000
102.5900 	25.5700 	0.000 	0.000 	-10.300 	33.800 	0.000
102.5900 	25.6500 	0.000 	0.000 	-10.300 	33.800 	0.000
102.5900 	25.7300 	0.000 	0.000 	-10.300 	33.800 	0.000
102.5900 	25.8100 	0.000 	0.000 	-10.300 	33.800 	0.000
102.5900 	25.8900 	0.000 	0.000 	-10.300 	33.800 	0.000
102.5900 	25.9700 	0.000 	0.000 	-10.300 	33.800 	0.000
102.5900 	26.0500 	0.000 	0.000 	-10.300 	33.800 	0.000
102.5900 	26.1300 	0.000 	0.000 	-10.300 	33.800 	0.000
102.5900 	26.2100 	0.000 	0.000 	-10.300 	33.800 	0.000
102.5900 	26.2900 	0.000 	0.000 	-10.300 	33.800 	0.000
102.5900 	26.3700 	0.000 	0.000 	-10.300 	33.800 	0.000
102.5900 	26.4500 	0.000 	0.000 	-10.300 	33.800 	0.000
102.6700 	23.6500 	0.000 	0.000 	-10.300 	33.800 	0.000
102.6700 	23.7300 	0.000 	0.000 	-10.300 	33.800 	0.000
102.6700 	23.8100 	0.000 	0.000 	-10.300 	33.800 	0.000
102.6700 	23.8900 	0.000 	0.000 	-10.300 	33.800 	0.000
102.6700 	23.9700 	0.000 	0.000 	-10.300 	33.800 	0.000
102.6700 	24.0500 	0.000 	0.000 	-10.300 	33.800 	0.000
102.6700 	24.1300 	0.000 	0.000 	-10.300 	33.800 	0.000
102.6700 	24.2100 	0.000 	0.000 	-10.300 	33.800 	0.000
102.6700 	24.2900 	0.000 	0.000 	-10.300 	33.800 	0.000
102.6700 	24.3700 	0.000 	0.000 	-10.300 	33.800 	0.000
102.6700 	24.4500 	0.000 	0.000 	-10.300 	33.800 	0.000
102.6700 	24.5300 	0.000 	0.000 	-10.300 	33.800 	0.000
102.6700 	24.6100 	0.000 	0.000 	-10.300 	33.800 	0.000
102.6700 	24.6900 	0.000 	0.000 	-10.300 	33.800 	0.000
102.6700 	24.7700 	0.000 	0.000 	-10.300 	33.800 	0.000
102.6700 	24.8500 	0.000 	0.000 	-10.300 	33.800 	0.000
102.6700 	24.9300 	0.000 	0.000 	-10.300 	33.800 	0.000
102.6700 	25.0100 	0.000 	0.000 	-10.300 	33.800 	0.000
102.6700 	25.0900 	0.000 	0.000 	-10.300 	33.800 	0.000
102.6700 	25.1700 	0.000 	0.000 	-10.300 	33.800 	0.000
102.6700 	25.2500 	0.000 	0.000 	-10.300 	33.800 	0.000
102.6700 	25.3300 	0.000 	0.000 	-10.300 	33.800 	0.000
102.6700 	25.4100 	0.000 	0.000 	-10.300 	33.800 	0.000
102.6700 	25.4900 	0.000 	0.000 	-10.300 	33.800 	0.000
102.6700 	25.5700 	0.000 	0.000 	-10.300 	33.800 	0.000
102.6700 	25.6500 	0.000 	0.000 	-10.300 	33.800 	0.000
102.6700 	25.7300 	0.000 	0.000 	-10.300 	33.800 	0.000
102.6700 	25.8100 	0.000 	0.000 	-10.300 	33.800 	0.000
102.6700 	25.8900 	0.000 	0.000 	-10.300 	33.800 	0.000
102.6700 	25.9700 	0.000 	0.000 	-10.300 	33.800 	0.000
102.6700 	26.0500 	0.000 	0.000 	-10.300 	33.800 	0.000
102.6700 	26.1300 	0.000 	0.000 	-10.300 	33.800 	0.000
102.6700 	26.2100 	0.000 	0.000 	-10.300 	33.800 	0.000
102.6700 	26.2900 	0.000 	0.000 	-10.300 	33.800 	0.000
102.6700 	26.3700 	0.000 	0.000 	-10.300 	33.800 	0.000
102.6700 	26.4500 	0.000 	0.000 	-10.300 	33.800 	0.000
102.6700 	26.5300 	0.000 	0.000 	-10.300 	33.800 	0.000
102.6700 	26.6100 	0.000 	0.000 	-10.300 	33.800 	0.000
102.7500 	23.6500 	0.000 	0.000 	-10.300 	33.800 	0.000
102.7500 	23.7300 	0.000 	0.000 	-10.300 	33.800 	0.000
102.7500 	23.8100 	0.000 	0.000 	-10.300 	33.800 	0.000
102.7500 	23.8900 	0.000 	0.000 	-10.300 	33.800 	0.000
102.7500 	23.9700 	0.000 	0.000 	-10.300 	33.800 	0.000
102.7500 	24.0500 	0.000 	0.000 	-10.300 	33.800 	0.000
102.7500 	24.1300 	0.000 	0.000 	-10.300 	33.800 	0.000
102.7500 	24.2100 	0.000 	0.000 	-10.300 	33.800 	0.000
102.7500 	24.2900 	0.000 	0.000 	-10.300 	33.800 	0.000
102.7500 	24.3700 	0.000 	0.000 	-10.300 	33.800 	0.000
102.7500 	24.4500 	0.000 	0.000 	-10.300 	33.800 	0.000
102.7500 	24.5300 	0.000 	0.000 	-10.300 	33.800 	0.000
102.7500 	24.6100 	0.000 	0.000 	-10.300 	33.800 	0.000
102.7500 	24.6900 	0.000 	0.000 	-10.300 	33.800 	0.000
102.7500 	24.7700 	0.000 	0.000 	-10.300 	33.800 	0.000
102.7500 	24.8500 	0.000 	0.000 	-10.300 	33.800 	0.000
102.7500 	24.9300 	0.000 	0.000 	-10.300 	33.800 	0.000
102.7500 	25.0100 	0.000 	0.000 	-10.300 	33.800 	0.000
102.7500 	25.0900 	0.000 	0.000 	-10.300 	33.800 	0.000
102.7500 	25.1700 	0.000 	0.000 	-10.300 	33.800 	0.000
102.7500 	25.2500 	0.000 	0.000 	-10.300 	33.800 	0.000
102.7500 	25.3300 	0.000 	0.000 	-10.300 	33.800 	0.000
102.7500 	25.4100 	0.000 	0.000 	-10.300 	33.800 	0.000
102.7500 	25.4900 	0.000 	0.000 	-10.300 	33.800 	0.000
102.7500 	25.5700 	0.000 	0.000 	-10.300 	33.800 	0.000
102.7500 	25.6500 	0.000 	0.000 	-10.300 	33.800 	0.000
102.7500 	25.7300 	0.000 	0.000 	-10.300 	33.800 	0.000
102.7500 	25.8100 	0.000 	0.000 	-10.300 	33.800 	0.000
102.7500 	25.8900 	0.000 	0.000 	-10.300 	33.800 	0.000
102.7500 	25.9700 	0.000 	0.000 	-10.300 	33.800 	0.000
102.7500 	26.0500 	0.000 	0.000 	-10.300 	33.800 	0.000
102.7500 	26.1300 	0.000 	0.000 	-10.300 	33.800 	0.000
102.7500 	26.2100 	0.000 	0.000 	-10.300 	33.800 	0.000
102.7500 	26.2900 	0.000 	0.000 	-10.300 	33.800 	0.000
102.7500 	26.3700 	0.000 	0.000 	-10.300 	33.800 	0.000
102.7500 	26.4500 	0.000 	0.000 	-10.300 	33.800 	0.000
102.7500 	26.5300 	0.000 	0.000 	-10.300 	33.800 	0.000
102.7500 	26.6100 	0.000 	0.000 	-10.300 	33.800 	0.000
102.7500 	26.6900 	0.000 	0.000 	-10.300 	33.800 	0.000
102.8300 	23.6500 	0.000 	0.000 	-10.300 	33.800 	0.000
102.8300 	23.7300 	0.000 	0.000 	-10.300 	33.800 	0.000
102.8300 	23.8100 	0.000 	0.000 	-10.300 	33.800 	0.000
102.8300 	23.8900 	0.000 	0.000 	-10.300 	33.800 	0.000
102.8300 	23.9700 	0.000 	0.000 	-10.300 	33.800 	0.000
102.8300 	24.0500 	0.000 	0.000 	-10.300 	33.800 	0.000
102.8300 	24.1300 	0.000 	0.000 	-10.300 	33.800 	0.000
102.8300 	24.2100 	0.000 	0.000 	-10.300 	33.800 	0.000
102.8300 	24.2900 	0.000 	0.000 	-10.300 	33.800 	0.000
102.8300 	24.3700 	0.000 	0.000 	-10.300 	33.800 	0.000
102.8300 	24.4500 	0.000 	0.000 	-10.300 	33.800 	0.000
102.8300 	24.5300 	0.000 	0.000 	-10.300 	33.800 	0.000
102.8300 	24.6100 	0.000 	0.000 	-10.300 	33.800 	0.000
102.8300 	24.6900 	0.000 	0.000 	-10.300 	33.800 	0.000
102.8300 	24.7700 	0.000 	0.000 	-10.300 	33.800 	0.000
102.8300 	24.8500 	0.000 	0.000 	-10.300 	33.800 	0.000
102.8300 	24.9300 	0.000 	0.000 	-10.300 	33.800 	0.000
102.8300 	25.0100 	0.000 	0.000 	-10.300 	33.800 	0.000
102.8300 	25.0900 	0.000 	0.000 	-10.300 	33.800 	0.000
102.8300 	25.1700 	0.000 	0.000 	-10.300 	33.800 	0.000
102.8300 	25.2500 	0.000 	0.000 	-10.300 	33.800 	0.000
102.8300 	25.3300 	0.000 	0.000 	-10.300 	33.800 	0.000
102.8300 	25.4100 	0.000 	0.000 	-10.300 	33.800 	0.000
102.8300 	25.4900 	0.000 	0.000 	-10.300 	33.800 	0.000
102.8300 	25.5700 	0.000 	0.000 	-10.300 	33.800 	0.000
102.8300 	25.6500 	0.000 	0.000 	-10.300 	33.800 	0.000
102.8300 	25.7300 	0.000 	0.000 	-10.300 	33.800 	0.000
102.8300 	25.8100 	0.000 	0.000 	-10.300 	33.800 	0.000
102.8300 	25.8900 	0.000 	0.000 	-10.300 	33.800 	0.000
102.8300 	25.9700 	0.000 	0.000 	-10.300 	33.800 	0.000
102.8300 	26.0500 	0.000 	0.000 	-10.300 	33.800 	0.000
102.8300 	26.1300 	0.000 	0.000 	-10.300 	33.800 	0.000
102.8300 	26.2100 	0.000 	0.000 	-10.300 	33.800 	0.000
102.8300 	26.2900 	0.000 	0.000 	-10.300 	33.800 	0.000
102.8300 	26.3700 	0.000 	0.000 	-10.300 	33.800 	0.000
102.8300 	26.4500 	0.000 	0.000 	-10.300 	33.800 	0.000
102.8300 	26.5300 	0.000 	0.000 	-10.300 	33.800 	0.000
102.8300 	26.6100 	0.000 	0.000 	-10.300 	33.800 	0.000
102.8300 	26.6900 	0.000 	0.000 	-10.300 	33.800 	0.000
102.8300 	26.7700 	0.000 	0.000 	-10.300 	33.800 	0.000
102.8300 	26.8500 	0.000 	0.000 	-10.300 	33.800 	0.000
102.9100 	23.8900 	0.000 	0.000 	-10.300 	33.800 	0.000
102.9100 	23.9700 	0.000 	0.000 	-10.300 	33.800 	0.000
102.9100 	24.0500 	0.000 	0.000 	-10.300 	33.800 	0.000
102.9100 	24.1300 	0.000 	0.000 	-10.300 	33.800 	0.000
102.9100 	24.2100 	0.000 	0.000 	-10.300 	33.800 	0.000
102.9100 	24.2900 	0.000 	0.000 	-10.300 	33.800 	0.000
102.9100 	24.3700 	0.000 	0.000 	-10.300 	33.800 	0.000
102.9100 	24.4500 	0.000 	0.000 	-10.300 	33.800 	0.000
102.9100 	24.5300 	0.000 	0.000 	-10.300 	33.800 	0.000
102.9100 	24.6100 	0.000 	0.000 	-10.300 	33.800 	0.000
102.9100 	24.6900 	0.000 	0.000 	-10.300 	33.800 	0.000
102.9100 	24.7700 	0.000 	0.000 	-10.300 	33.800 	0.000
102.9100 	24.8500 	0.000 	0.000 	-10.300 	33.800 	0.000
102.9100 	24.9300 	0.000 	0.000 	-10.300 	33.800 	0.000
102.9100 	25.0100 	0.000 	0.000 	-10.300 	33.800 	0.000
102.9100 	25.0900 	0.000 	0.000 	-10.300 	33.800 	0.000
102.9100 	25.1700 	0.000 	0.000 	-10.300 	33.800 	0.000
102.9100 	25.2500 	0.000 	0.000 	-10.300 	33.800 	0.000
102.9100 	25.3300 	0.000 	0.000 	-10.300 	33.800 	0.000
102.9100 	25.4100 	0.000 	0.000 	-10.300 	33.800 	0.000
102.9100 	25.4900 	0.000 	0.000 	-10.300 	33.800 	0.000
102.9100 	25.5700 	0.000 	0.000 	-10.300 	33.800 	0.000
102.9100 	25.6500 	0.000 	0.000 	-10.300 	33.800 	0.000
102.9100 	25.7300 	0.000 	0.000 	-10.300 	33.800 	0.000
102.9100 	25.8100 	0.000 	0.000 	-10.300 	33.800 	0.000
102.9100 	25.8900 	0.000 	0.000 	-10.300 	33.800 	0.000
102.9100 	25.9700 	0.000 	0.000 	-10.300 	33.800 	0.000
102.9100 	26.0500 	0.000 	0.000 	-10.300 	33.800 	0.000
102.9100 	26.1300 	0.000 	0.000 	-10.300 	33.800 	0.000
102.9100 	26.2100 	0.000 	0.000 	-10.300 	33.800 	0.000
102.9100 	26.2900 	0.000 	0.000 	-10.300 	33.800 	0.000
102.9100 	26.3700 	0.000 	0.000 	-10.300 	33.800 	0.000
102.9100 	26.4500 	0.000 	0.000 	-10.300 	33.800 	0.000
102.9100 	26.5300 	0.000 	0.000 	-10.300 	33.800 	0.000
102.9100 	26.6100 	0.000 	0.000 	-10.300 	33.800 	0.000
102.9100 	26.6900 	0.000 	0.000 	-10.300 	33.800 	0.000
102.9100 	26.7700 	0.000 	0.000 	-10.300 	33.800 	0.000
102.9100 	26.8500 	0.000 	0.000 	-10.300 	33.800 	0.000
102.9100 	26.9300 	0.000 	0.000 	-10.300 	33.800 	0.000
102.9100 	27.0100 	0.000 	0.000 	-10.300 	33.800 	0.000
102.9900 	24.2100 	0.000 	0.000 	-10.300 	33.800 	0.000
102.9900 	24.2900 	0.000 	0.000 	-10.300 	33.800 	0.000
102.9900 	24.3700 	0.000 	0.000 	-10.300 	33.800 	0.000
102.9900 	24.4500 	0.000 	0.000 	-10.300 	33.800 	0.000
102.9900 	24.5300 	0.000 	0.000 	-10.300 	33.800 	0.000
102.9900 	24.6100 	0.000 	0.000 	-10.300 	33.800 	0.000
102.9900 	24.6900 	0.000 	0.000 	-10.300 	33.800 	0.000
102.9900 	24.7700 	0.000 	0.000 	-10.300 	33.800 	0.000
102.9900 	24.8500 	0.000 	0.000 	-10.300 	33.800 	0.000
102.9900 	24.9300 	0.000 	0.000 	-10.300 	33.800 	0.000
102.9900 	25.0100 	0.000 	0.000 	-10.300 	33.800 	0.000
102.9900 	25.0900 	0.000 	0.000 	-10.300 	33.800 	0.000
102.9900 	25.1700 	0.000 	0.000 	-10.300 	33.800 	0.000
102.9900 	25.2500 	0.000 	0.000 	-10.300 	33.800 	0.000
102.9900 	25.3300 	0.000 	0.000 	-10.300 	33.800 	0.000
102.9900 	25.4100 	0.000 	0.000 	-10.300 	33.800 	0.000
102.9900 	25.4900 	0.000 	0.000 	-10.300 	33.800 	0.000
102.9900 	25.5700 	0.000 	0.000 	-10.300 	33.800 	0.000
102.9900 	25.6500 	0.000 	0.000 	-10.300 	33.800 	0.000
102.9900 	25.7300 	0.000 	0.000 	-10.300 	33.800 	0.000
102.9900 	25.8100 	0.000 	0.000 	-10.300 	33.800 	0.000
102.9900 	25.8900 	0.000 	0.000 	-10.300 	33.800 	0.000
102.9900 	25.9700 	0.000 	0.000 	-10.300 	33.800 	0.000
102.9900 	26.0500 	0.000 	0.000 	-10.300 	33.800 	0.000
102.9900 	26.1300 	0.000 	0.000 	-10.300 	33.800 	0.000
102.9900 	26.2100 	0.000 	0.000 	-10.300 	33.800 	0.000
102.9900 	26.2900 	0.000 	0.000 	-10.300 	33.800 	0.000
102.9900 	26.3700 	0.000 	0.000 	-10.300 	33.800 	0.000
102.9900 	26.4500 	0.000 	0.000 	-10.300 	33.800 	0.000
102.9900 	26.5300 	0.000 	0.000 	-10.300 	33.800 	0.000
102.9900 	26.6100 	0.000 	0.000 	-10.300 	33.800 	0.000
102.9900 	26.6900 	0.000 	0.000 	-10.300 	33.800 	0.000
102.9900 	26.7700 	0.000 	0.000 	-10.300 	33.800 	0.000
102.9900 	26.8500 	0.000 	0.000 	-10.300 	33.800 	0.000
102.9900 	26.9300 	0.000 	0.000 	-10.300 	33.800 	0.000
102.9900 	27.0100 	0.000 	0.000 	-10.300 	33.800 	0.000
102.9900 	27.0900 	0.000 	0.000 	-10.300 	33.800 	0.000
103.0700 	24.6100 	0.000 	0.000 	-10.300 	33.800 	0.000
103.0700 	24.6900 	0.000 	0.000 	-10.300 	33.800 	0.000
103.0700 	24.7700 	0.000 	0.000 	-10.300 	33.800 	0.000
103.0700 	24.8500 	0.000 	0.000 	-10.300 	33.800 	0.000
103.0700 	24.9300 	0.000 	0.000 	-10.300 	33.800 	0.000
103.0700 	25.0100 	0.000 	0.000 	-10.300 	33.800 	0.000
103.0700 	25.0900 	0.000 	0.000 	-10.300 	33.800 	0.000
103.0700 	25.1700 	0.000 	0.000 	-10.300 	33.800 	0.000
103.0700 	25.2500 	0.000 	0.000 	-10.300 	33.800 	0.000
103.0700 	25.3300 	0.000 	0.000 	-10.300 	33.800 	0.000
103.0700 	25.4100 	0.000 	0.000 	-10.300 	33.800 	0.000
103.0700 	25.4900 	0.000 	0.000 	-10.300 	33.800 	0.000
103.0700 	25.5700 	0.000 	0.000 	-10.300 	33.800 	0.000
103.0700 	25.6500 	0.000 	0.000 	-10.300 	33.800 	0.000
103.0700 	25.7300 	0.000 	0.000 	-10.300 	33.800 	0.000
103.0700 	25.8100 	0.000 	0.000 	-10.300 	33.800 	0.000
103.0700 	25.8900 	0.000 	0.000 	-10.300 	33.800 	0.000
103.0700 	25.9700 	0.000 	0.000 	-10.300 	33.800 	0.000
103.0700 	26.0500 	0.000 	0.000 	-10.300 	33.800 	0.000
103.0700 	26.1300 	0.000 	0.000 	-10.300 	33.800 	0.000
103.0700 	26.2100 	0.000 	0.000 	-10.300 	33.800 	0.000
103.0700 	26.2900 	0.000 	0.000 	-10.300 	33.800 	0.000
103.0700 	26.3700 	0.000 	0.000 	-10.300 	33.800 	0.000
103.0700 	26.4500 	0.000 	0.000 	-10.300 	33.800 	0.000
103.0700 	26.5300 	0.000 	0.000 	-10.300 	33.800 	0.000
103.0700 	26.6100 	0.000 	0.000 	-10.300 	33.800 	0.000
103.0700 	26.6900 	0.000 	0.000 	-10.300 	33.800 	0.000
103.0700 	26.7700 	0.000 	0.000 	-10.300 	33.800 	0.000
103.0700 	26.8500 	0.000 	0.000 	-10.300 	33.800 	0.000
103.0700 	26.9300 	0.000 	0.000 	-10.300 	33.800 	0.000
103.0700 	27.0100 	0.000 	0.000 	-10.300 	33.800 	0.000
103.0700 	27.0900 	0.000 	0.000 	-10.300 	33.800 	0.000
103.0700 	27.1700 	0.000 	0.000 	-10.300 	33.800 	0.000
103.0700 	27.2500 	0.000 	0.000 	-10.300 	33.800 	0.000
103.1500 	25.0100 	0.000 	0.000 	-10.300 	33.800 	0.000
103.1500 	25.0900 	0.000 	0.000 	-10.300 	33.800 	0.000
103.1500 	25.1700 	0.000 	0.000 	-10.300 	33.800 	0.000
103.1500 	25.2500 	0.000 	0.000 	-10.300 	33.800 	0.000
103.1500 	25.3300 	0.000 	0.000 	-10.300 	33.800 	0.000
103.1500 	25.4100 	0.000 	0.000 	-10.300 	33.800 	0.000
103.1500 	25.4900 	0.000 	0.000 	-10.300 	33.800 	0.000
103.1500 	25.5700 	0.000 	0.000 	-10.300 	33.800 	0.000
103.1500 	25.6500 	0.000 	0.000 	-10.300 	33.800 	0.000
103.1500 	25.7300 	0.000 	0.000 	-10.300 	33.800 	0.000
103.1500 	25.8100 	0.000 	0.000 	-10.300 	33.800 	0.000
103.1500 	25.8900 	0.000 	0.000 	-10.300 	33.800 	0.000
103.1500 	25.9700 	0.000 	0.000 	-10.300 	33.800 	0.000
103.1500 	26.0500 	0.000 	0.000 	-10.300 	33.800 	0.000
103.1500 	26.1300 	0.000 	0.000 	-10.300 	33.800 	0.000
103.1500 	26.2100 	0.000 	0.000 	-10.300 	33.800 	0.000
103.1500 	26.2900 	0.000 	0.000 	-10.300 	33.800 	0.000
103.1500 	26.3700 	0.000 	0.000 	-10.300 	33.800 	0.000
103.1500 	26.4500 	0.000 	0.000 	-10.300 	33.800 	0.000
103.1500 	26.5300 	0.000 	0.000 	-10.300 	33.800 	0.000
103.1500 	26.6100 	0.000 	0.000 	-10.300 	33.800 	0.000
103.1500 	26.6900 	0.000 	0.000 	-10.300 	33.800 	0.000
103.1500 	26.7700 	0.000 	0.000 	-10.300 	33.800 	0.000
103.1500 	26.8500 	0.000 	0.000 	-10.300 	33.800 	0.000
103.1500 	26.9300 	0.000 	0.000 	-10.300 	33.800 	0.000
103.2300 	25.4100 	0.000 	0.000 	-10.300 	33.800 	0.000
103.2300 	25.4900 	0.000 	0.000 	-10.300 	33.800 	0.000
103.2300 	25.5700 	0.000 	0.000 	-10.300 	33.800 	0.000
103.2300 	25.6500 	0.000 	0.000 	-10.300 	33.800 	0.000
103.2300 	25.7300 	0.000 	0.000 	-10.300 	33.800 	0.000
103.2300 	25.8100 	0.000 	0.000 	-10.300 	33.800 	0.000
103.2300 	25.8900 	0.000 	0.000 	-10.300 	33.800 	0.000
103.2300 	25.9700 	0.000 	0.000 	-10.300 	33.800 	0.000
103.2300 	26.0500 	0.000 	0.000 	-10.300 	33.800 	0.000
103.2300 	26.1300 	0.000 	0.000 	-10.300 	33.800 	0.000
103.2300 	26.2100 	0.000 	0.000 	-10.300 	33.800 	0.000
101.7100 	23.6500 	0.000 	0.000 	-169.800 	33.800 	0.000
101.7100 	23.7300 	0.000 	0.000 	-169.800 	33.800 	0.000
101.7100 	23.8100 	0.000 	0.000 	-169.800 	33.800 	0.000
101.7900 	23.6500 	0.000 	0.000 	-169.800 	33.800 	0.000
101.7900 	23.7300 	0.000 	0.000 	-169.800 	33.800 	0.000
101.7900 	23.8100 	0.000 	0.000 	-169.800 	33.800 	0.000
101.7900 	23.8900 	0.000 	0.000 	-169.800 	33.800 	0.000
101.7900 	23.9700 	0.000 	0.000 	-169.800 	33.800 	0.000
101.7900 	24.0500 	0.000 	0.000 	-169.800 	33.800 	0.000
101.8700 	23.6500 	0.000 	0.000 	-169.800 	33.800 	0.000
101.8700 	23.7300 	0.000 	0.000 	-169.800 	33.800 	0.000
101.8700 	23.8100 	0.000 	0.000 	-169.800 	33.800 	0.000
101.8700 	23.8900 	0.000 	0.000 	-169.800 	33.800 	0.000
101.8700 	23.9700 	0.000 	0.000 	-169.800 	33.800 	0.000
101.8700 	24.0500 	0.000 	0.000 	-169.800 	33.800 	0.000
101.8700 	24.1300 	0.000 	0.000 	-169.800 	33.800 	0.000
101.8700 	24.2100 	0.000 	0.000 	-169.800 	33.800 	0.000
101.8700 	24.2900 	0.000 	0.000 	-169.800 	33.800 	0.000
101.9500 	23.6500 	0.000 	0.000 	-169.800 	33.800 	0.000
101.9500 	23.7300 	0.000 	0.000 	-169.800 	33.800 	0.000
101.9500 	23.8100 	0.000 	0.000 	-169.800 	33.800 	0.000
101.9500 	23.8900 	0.000 	0.000 	-169.800 	33.800 	0.000
101.9500 	23.9700 	0.000 	0.000 	-169.800 	33.800 	0.000
101.9500 	24.0500 	0.000 	0.000 	-169.800 	33.800 	0.000
101.9500 	24.1300 	0.000 	0.000 	-169.800 	33.800 	0.000
101.9500 	24.2100 	0.000 	0.000 	-169.800 	33.800 	0.000
101.9500 	24.2900 	0.000 	0.000 	-169.800 	33.800 	0.000
101.9500 	24.3700 	0.000 	0.000 	-169.800 	33.800 	0.000
101.9500 	24.4500 	0.000 	0.000 	-169.800 	33.800 	0.000
101.9500 	24.5300 	0.000 	0.000 	-169.800 	33.800 	0.000
102.0300 	23.6500 	0.000 	0.000 	-169.800 	33.800 	0.000
102.0300 	23.7300 	0.000 	0.000 	-169.800 	33.800 	0.000
102.0300 	23.8100 	0.000 	0.000 	-169.800 	33.800 	0.000
102.0300 	23.8900 	0.000 	0.000 	-169.800 	33.800 	0.000
102.0300 	23.9700 	0.000 	0.000 	-169.800 	33.800 	0.000
102.0300 	24.0500 	0.000 	0.000 	-169.800 	33.800 	0.000
102.0300 	24.1300 	0.000 	0.000 	-169.800 	33.800 	0.000
102.0300 	24.2100 	0.000 	0.000 	-169.800 	33.800 	0.000
102.0300 	24.2900 	0.000 	0.000 	-169.800 	33.800 	0.000
102.0300 	24.3700 	0.000 	0.000 	-169.800 	33.800 	0.000
102.0300 	24.4500 	0.000 	0.000 	-169.800 	33.800 	0.000
102.0300 	24.5300 	0.000 	0.000 	-169.800 	33.800 	0.000
102.0300 	24.6100 	0.000 	0.000 	-169.800 	33.800 	0.000
102.0300 	24.6900 	0.000 	0.000 	-169.800 	33.800 	0.000
102.0300 	24.7700 	0.000 	0.000 	-169.800 	33.800 	0.000
102.1100 	23.6500 	0.000 	0.000 	-169.800 	33.800 	0.000
102.1100 	23.7300 	0.000 	0.000 	-169.800 	33.800 	0.000
102.1100 	23.8100 	0.000 	0.000 	-169.800 	33.800 	0.000
102.1100 	23.8900 	0.000 	0.000 	-169.800 	33.800 	0.000
102.1100 	23.9700 	0.000 	0.000 	-169.800 	33.800 	0.000
102.1100 	24.0500 	0.000 	0.000 	-169.800 	33.800 	0.000
102.1100 	24.1300 	0.000 	0.000 	-169.800 	33.800 	0.000
102.1100 	24.2100 	0.000 	0.000 	-169.800 	33.800 	0.000
102.1100 	24.2900 	0.000 	0.000 	-169.800 	33.800 	0.000
102.1100 	24.3700 	0.000 	0.000 	-169.800 	33.800 	0.000
102.1100 	24.4500 	0.000 	0.000 	-169.800 	33.800 	0.000
102.1100 	24.5300 	0.000 	0.000 	-169.800 	33.800 	0.000
102.1100 	24.6100 	0.000 	0.000 	-169.800 	33.800 	0.000
102.1100 	24.6900 	0.000 	0.000 	-169.800 	33.800 	0.000
102.1100 	24.7700 	0.000 	0.000 	-169.800 	33.800 	0.000
102.1100 	24.8500 	0.000 	0.000 	-169.800 	33.800 	0.000
102.1100 	24.9300 	0.000 	0.000 	-169.800 	33.800 	0.000
102.1100 	25.0100 	0.000 	0.000 	-169.800 	33.800 	0.000
102.1900 	23.6500 	0.000 	0.000 	-169.800 	33.800 	0.000
102.1900 	23.7300 	0.000 	0.000 	-169.800 	33.800 	0.000
102.1900 	23.8100 	0.000 	0.000 	-169.800 	33.800 	0.000
102.1900 	23.8900 	0.000 	0.000 	-169.800 	33.800 	0.000
102.1900 	23.9700 	0.000 	0.000 	-169.800 	33.800 	0.000
102.1900 	24.0500 	0.000 	0.000 	-169.800 	33.800 	0.000
102.1900 	24.1300 	0.000 	0.000 	-169.800 	33.800 	0.000
102.1900 	24.2100 	0.000 	0.000 	-169.800 	33.800 	0.000
102.1900 	24.2900 	0.000 	0.000 	-169.800 	33.800 	0.000
102.1900 	24.3700 	0.000 	0.000 	-169.800 	33.800 	0.000
102.1900 	24.4500 	0.000 	0.000 	-169.800 	33.800 	0.000
102.1900 	24.5300 	0.000 	0.000 	-169.800 	33.800 	0.000
102.1900 	24.6100 	0.000 	0.000 	-169.800 	33.800 	0.000
102.1900 	24.6900 	0.000 	0.000 	-169.800 	33.800 	0.000
102.1900 	24.7700 	0.000 	0.000 	-169.800 	33.800 	0.000
102.1900 	24.8500 	0.000 	0.000 	-169.800 	33.800 	0.000
102.1900 	24.9300 	0.000 	0.000 	-169.800 	33.800 	0.000
102.1900 	25.0100 	0.000 	0.000 	-169.800 	33.800 	0.000
102.1900 	25.0900 	0.000 	0.000 	-169.800 	33.800 	0.000
102.1900 	25.1700 	0.000 	0.000 	-169.800 	33.800 	0.000
102.1900 	25.2500 	0.000 	0.000 	-169.800 	33.800 	0.000
102.2700 	23.6500 	0.000 	0.000 	-169.800 	33.800 	0.000
102.2700 	23.7300 	0.000 	0.000 	-169.800 	33.800 	0.000
102.2700 	23.8100 	0.000 	0.000 	-169.800 	33.800 	0.000
102.2700 	23.8900 	0.000 	0.000 	-169.800 	33.800 	0.000
102.2700 	23.9700 	0.000 	0.000 	-169.800 	33.800 	0.000
102.2700 	24.0500 	0.000 	0.000 	-169.800 	33.800 	0.000
102.2700 	24.1300 	0.000 	0.000 	-169.800 	33.800 	0.000
102.2700 	24.2100 	0.000 	0.000 	-169.800 	33.800 	0.000
102.2700 	24.2900 	0.000 	0.000 	-169.800 	33.800 	0.000
102.2700 	24.3700 	0.000 	0.000 	-169.800 	33.800 	0.000
102.2700 	24.4500 	0.000 	0.000 	-169.800 	33.800 	0.000
102.2700 	24.5300 	0.000 	0.000 	-169.800 	33.800 	0.000
102.2700 	24.6100 	0.000 	0.000 	-169.800 	33.800 	0.000
102.2700 	24.6900 	0.000 	0.000 	-169.800 	33.800 	0.000
102.2700 	24.7700 	0.000 	0.000 	-169.800 	33.800 	0.000
102.2700 	24.8500 	0.000 	0.000 	-169.800 	33.800 	0.000
102.2700 	24.9300 	0.000 	0.000 	-169.800 	33.800 	0.000
102.2700 	25.0100 	0.000 	0.000 	-169.800 	33.800 	0.000
102.2700 	25.0900 	0.000 	0.000 	-169.800 	33.800 	0.000
102.2700 	25.1700 	0.000 	0.000 	-169.800 	33.800 	0.000
102.2700 	25.2500 	0.000 	0.000 	-169.800 	33.800 	0.000
102.2700 	25.3300 	0.000 	0.000 	-169.800 	33.800 	0.000
102.2700 	25.4100 	0.000 	0.000 	-169.800 	33.800 	0.000
102.2700 	25.4900 	0.000 	0.000 	-169.800 	33.800 	0.000
102.2700 	25.5700 	0.000 	0.000 	-169.800 	33.800 	0.000
102.3500 	23.6500 	0.000 	0.000 	-169.800 	33.800 	0.000
102.3500 	23.7300 	0.000 	0.000 	-169.800 	33.800 	0.000
102.3500 	23.8100 	0.000 	0.000 	-169.800 	33.800 	0.000
102.3500 	23.8900 	0.000 	0.000 	-169.800 	33.800 	0.000
102.3500 	23.9700 	0.000 	0.000 	-169.800 	33.800 	0.000
102.3500 	24.0500 	0.000 	0.000 	-169.800 	33.800 	0.000
102.3500 	24.1300 	0.000 	0.000 	-169.800 	33.800 	0.000
102.3500 	24.2100 	0.000 	0.000 	-169.800 	33.800 	0.000
102.3500 	24.2900 	0.000 	0.000 	-169.800 	33.800 	0.000
102.3500 	24.3700 	0.000 	0.000 	-169.800 	33.800 	0.000
102.3500 	24.4500 	0.000 	0.000 	-169.800 	33.800 	0.000
102.3500 	24.5300 	0.000 	0.000 	-169.800 	33.800 	0.000
102.3500 	24.6100 	0.000 	0.000 	-169.800 	33.800 	0.000
102.3500 	24.6900 	0.000 	0.000 	-169.800 	33.800 	0.000
102.3500 	24.7700 	0.000 	0.000 	-169.800 	33.800 	0.000
102.3500 	24.8500 	0.000 	0.000 	-169.800 	33.800 	0.000
102.3500 	24.9300 	0.000 	0.000 	-169.800 	33.800 	0.000
102.3500 	25.0100 	0.000 	0.000 	-169.800 	33.800 	0.000
102.3500 	25.0900 	0.000 	0.000 	-169.800 	33.800 	0.000
102.3500 	25.1700 	0.000 	0.000 	-169.800 	33.800 	0.000
102.3500 	25.2500 	0.000 	0.000 	-169.800 	33.800 	0.000
102.3500 	25.3300 	0.000 	0.000 	-169.800 	33.800 	0.000
102.3500 	25.4100 	0.000 	0.000 	-169.800 	33.800 	0.000
102.3500 	25.4900 	0.000 	0.000 	-169.800 	33.800 	0.000
102.3500 	25.5700 	0.000 	0.000 	-169.800 	33.800 	0.000
102.3500 	25.6500 	0.000 	0.000 	-169.800 	33.800 	0.000
102.3500 	25.7300 	0.000 	0.000 	-169.800 	33.800 	0.000
102.3500 	25.8100 	0.000 	0.000 	-169.800 	33.800 	0.000
102.4300 	23.6500 	0.000 	0.000 	-169.800 	33.800 	0.000
102.4300 	23.7300 	0.000 	0.000 	-169.800 	33.800 	0.000
102.4300 	23.8100 	0.000 	0.000 	-169.800 	33.800 	0.000
102.4300 	23.8900 	0.000 	0.000 	-169.800 	33.800 	0.000
102.4300 	23.9700 	0.000 	0.000 	-169.800 	33.800 	0.000
102.4300 	24.0500 	0.000 	0.000 	-169.800 	33.800 	0.000
102.4300 	24.1300 	0.000 	0.000 	-169.800 	33.800 	0.000
102.4300 	24.2100 	0.000 	0.000 	-169.800 	33.800 	0.000
102.4300 	24.2900 	0.000 	0.000 	-169.800 	33.800 	0.000
102.4300 	24.3700 	0.000 	0.000 	-169.800 	33.800 	0.000
102.4300 	24.4500 	0.000 	0.000 	-169.800 	33.800 	0.000
102.4300 	24.5300 	0.000 	0.000 	-169.800 	33.800 	0.000
102.4300 	24.6100 	0.000 	0.000 	-169.800 	33.800 	0.000
102.4300 	24.6900 	0.000 	0.000 	-169.800 	33.800 	0.000
102.4300 	24.7700 	0.000 	0.000 	-169.800 	33.800 	0.000
102.4300 	24.8500 	0.000 	0.000 	-169.800 	33.800 	0.000
102.4300 	24.9300 	0.000 	0.000 	-169.800 	33.800 	0.000
102.4300 	25.0100 	0.000 	0.000 	-169.800 	33.800 	0.000
102.4300 	25.0900 	0.000 	0.000 	-169.800 	33.800 	0.000
102.4300 	25.1700 	0.000 	0.000 	-169.800 	33.800 	0.000
102.4300 	25.2500 	0.000 	0.000 	-169.800 	33.800 	0.000
102.4300 	25.3300 	0.000 	0.000 	-169.800 	33.800 	0.000
102.4300 	25.4100 	0.000 	0.000 	-169.800 	33.800 	0.000
102.4300 	25.4900 	0.000 	0.000 	-169.800 	33.800 	0.000
102.4300 	25.5700 	0.000 	0.000 	-169.800 	33.800 	0.000
102.4300 	25.6500 	0.000 	0.000 	-169.800 	33.800 	0.000
102.4300 	25.7300 	0.000 	0.000 	-169.800 	33.800 	0.000
102.4300 	25.8100 	0.000 	0.000 	-169.800 	33.800 	0.000
102.4300 	25.8900 	0.000 	0.000 	-169.800 	33.800 	0.000
102.4300 	25.9700 	0.000 	0.000 	-169.800 	33.800 	0.000
102.4300 	26.0500 	0.000 	0.000 	-169.800 	33.800 	0.000
102.4300 	26.1300 	0.000 	0.000 	-169.800 	33.800 	0.000
102.5100 	23.6500 	0.000 	0.000 	-169.800 	33.800 	0.000
102.5100 	23.7300 	0.000 	0.000 	-169.800 	33.800 	0.000
102.5100 	23.8100 	0.000 	0.000 	-169.800 	33.800 	0.000
102.5100 	23.8900 	0.000 	0.000 	-169.800 	33.800 	0.000
102.5100 	23.9700 	0.000 	0.000 	-169.800 	33.800 	0.000
102.5100 	24.0500 	0.000 	0.000 	-169.800 	33.800 	0.000
102.5100 	24.1300 	0.000 	0.000 	-169.800 	33.800 	0.000
102.5100 	24.2100 	0.000 	0.000 	-169.800 	33.800 	0.000
102.5100 	24.2900 	0.000 	0.000 	-169.800 	33.800 	0.000
102.5100 	24.3700 	0.000 	0.000 	-169.800 	33.800 	0.000
102.5100 	24.4500 	0.000 	0.000 	-169.800 	33.800 	0.000
102.5100 	24.5300 	0.000 	0.000 	-169.800 	33.800 	0.000
102.5100 	24.6100 	0.000 	0.000 	-169.800 	33.800 	0.000
102.5100 	24.6900 	0.000 	0.000 	-169.800 	33.800 	0.000
102.5100 	24.7700 	0.000 	0.000 	-169.800 	33.800 	0.000
102.5100 	24.8500 	0.000 	0.000 	-169.800 	33.800 	0.000
102.5100 	24.9300 	0.000 	0.000 	-169.800 	33.800 	0.000
102.5100 	25.0100 	0.000 	0.000 	-169.800 	33.800 	0.000
102.5100 	25.0900 	0.000 	0.000 	-169.800 	33.800 	0.000
102.5100 	25.1700 	0.000 	0.000 	-169.800 	33.800 	0.000
102.5100 	25.2500 	0.000 	0.000 	-169.800 	33.800 	0.000
102.5100 	25.3300 	0.000 	0.000 	-169.800 	33.800 	0.000
102.5100 	25.4100 	0.000 	0.000 	-169.800 	33.800 	0.000
102.5100 	25.4900 	0.000 	0.000 	-169.800 	33.800 	0.000
102.5100 	25.5700 	0.000 	0.000 	-169.800 	33.800 	0.000
102.5100 	25.6500 	0.000 	0.000 	-169.800 	33.800 	0.000
102.5100 	25.7300 	0.000 	0.000 	-169.800 	33.800 	0.000
102.5100 	25.8100 	0.000 	0.000 	-169.800 	33.800 	0.000
102.5100 	25.8900 	0.000 	0.000 	-169.800 	33.800 	0.000
102.5100 	25.9700 	0.000 	0.000 	-169.800 	33.800 	0.000
102.5100 	26.0500 	0.000 	0.000 	-169.800 	33.800 	0.000
102.5100 	26.1300 	0.000 	0.000 	-169.800 	33.800 	0.000
102.5100 	26.2100 	0.000 	0.000 	-169.800 	33.800 	0.000
102.5100 	26.2900 	0.000 	0.000 	-169.800 	33.800 	0.000
102.5900 	23.6500 	0.000 	0.000 	-169.800 	33.800 	0.000
102.5900 	23.7300 	0.000 	0.000 	-169.800 	33.800 	0.000
102.5900 	23.8100 	0.000 	0.000 	-169.800 	33.800 	0.000
102.5900 	23.8900 	0.000 	0.000 	-169.800 	33.800 	0.000
102.5900 	23.9700 	0.000 	0.000 	-169.800 	33.800 	0.000
102.5900 	24.0500 	0.000 	0.000 	-169.800 	33.800 	0.000
102.5900 	24.1300 	0.000 	0.000 	-169.800 	33.800 	0.000
102.5900 	24.2100 	0.000 	0.000 	-169.800 	33.800 	0.000
102.5900 	24.2900 	0.000 	0.000 	-169.800 	33.800 	0.000
102.5900 	24.3700 	0.000 	0.000 	-169.800 	33.800 	0.000
102.5900 	24.4500 	0.000 	0.000 	-169.800 	33.800 	0.000
102.5900 	24.5300 	0.000 	0.000 	-169.800 	33.800 	0.000
102.5900 	24.6100 	0.000 	0.000 	-169.800 	33.800 	0.000
102.5900 	24.6900 	0.000 	0.000 	-169.800 	33.800 	0.000
102.5900 	24.7700 	0.000 	0.000 	-169.800 	33.800 	0.000
102.5900 	24.8500 	0.000 	0.000 	-169.800 	33.800 	0.000
102.5900 	24.9300 	0.000 	0.000 	-169.800 	33.800 	0.000
102.5900 	25.0100 	0.000 	0.000 	-169.800 	33.800 	0.000
102.5900 	25.0900 	0.000 	0.000 	-169.800 	33.800 	0.000
102.5900 	25.1700 	0.000 	0.000 	-169.800 	33.800 	0.000
102.5900 	25.2500 	0.000 	0.000 	-169.800 	33.800 	0.000
102.5900 	25.3300 	0.000 	0.000 	-169.800 	33.800 	0.000
102.5900 	25.4100 	0.000 	0.000 	-169.800 	33.800 	0.000
102.5900 	25.4900 	0.000 	0.000 	-169.800 	33.800 	0.000
102.5900 	25.5700 	0.000 	0.000 	-169.800 	33.800 	0.000
102.5900 	25.6500 	0.000 	0.000 	-169.800 	33.800 	0.000
102.5900 	25.7300 	0.000 	0.000 	-169.800 	33.800 	0.000
102.5900 	25.8100 	0.000 	0.000 	-169.800 	33.800 	0.000
102.5900 	25.8900 	0.000 	0.000 	-169.800 	33.800 	0.000
102.5900 	25.9700 	0.000 	0.000 	-169.800 	33.800 	0.000
102.5900 	26.0500 	0.000 	0.000 	-169.800 	33.800 	0.000
102.5900 	26.1300 	0.000 	0.000 	-169.800 	33.800 	0.000
102.5900 	26.2100 	0.000 	0.000 	-169.800 	33.800 	0.000
102.5900 	26.2900 	0.000 	0.000 	-169.800 	33.800 	0.000
102.5900 	26.3700 	0.000 	0.000 	-169.800 	33.800 	0.000
102.5900 	26.4500 	0.000 	0.000 	-169.800 	33.800 	0.000
102.6700 	23.6500 	0.000 	0.000 	-169.800 	33.800 	0.000
102.6700 	23.7300 	0.000 	0.000 	-169.800 	33.800 	0.000
102.6700 	23.8100 	0.000 	0.000 	-169.800 	33.800 	0.000
102.6700 	23.8900 	0.000 	0.000 	-169.800 	33.800 	0.000
102.6700 	23.9700 	0.000 	0.000 	-169.800 	33.800 	0.000
102.6700 	24.0500 	0.000 	0.000 	-169.800 	33.800 	0.000
102.6700 	24.1300 	0.000 	0.000 	-169.800 	33.800 	0.000
102.6700 	24.2100 	0.000 	0.000 	-169.800 	33.800 	0.000
102.6700 	24.2900 	0.000 	0.000 	-169.800 	33.800 	0.000
102.6700 	24.3700 	0.000 	0.000 	-169.800 	33.800 	0.000
102.6700 	24.4500 	0.000 	0.000 	-169.800 	33.800 	0.000
102.6700 	24.5300 	0.000 	0.000 	-169.800 	33.800 	0.000
102.6700 	24.6100 	0.000 	0.000 	-169.800 	33.800 	0.000
102.6700 	24.6900 	0.000 	0.000 	-169.800 	33.800 	0.000
102.6700 	24.7700 	0.000 	0.000 	-169.800 	33.800 	0.000
102.6700 	24.8500 	0.000 	0.000 	-169.800 	33.800 	0.000
102.6700 	24.9300 	0.000 	0.000 	-169.800 	33.800 	0.000
102.6700 	25.0100 	0.000 	0.000 	-169.800 	33.800 	0.000
102.6700 	25.0900 	0.000 	0.000 	-169.800 	33.800 	0.000
102.6700 	25.1700 	0.000 	0.000 	-169.800 	33.800 	0.000
102.6700 	25.2500 	0.000 	0.000 	-169.800 	33.800 	0.000
102.6700 	25.3300 	0.000 	0.000 	-169.800 	33.800 	0.000
102.6700 	25.4100 	0.000 	0.000 	-169.800 	33.800 	0.000
102.6700 	25.4900 	0.000 	0.000 	-169.800 	33.800 	0.000
102.6700 	25.5700 	0.000 	0.000 	-169.800 	33.800 	0.000
102.6700 	25.6500 	0.000 	0.000 	-169.800 	33.800 	0.000
102.6700 	25.7300 	0.000 	0.000 	-169.800 	33.800 	0.000
102.6700 	25.8100 	0.000 	0.000 	-169.800 	33.800 	0.000
102.6700 	25.8900 	0.000 	0.000 	-169.800 	33.800 	0.000
102.6700 	25.9700 	0.000 	0.000 	-169.800 	33.800 	0.000
102.6700 	26.0500 	0.000 	0.000 	-169.800 	33.800 	0.000
102.6700 	26.1300 	0.000 	0.000 	-169.800 	33.800 	0.000
102.6700 	26.2100 	0.000 	0.000 	-169.800 	33.800 	0.000
102.6700 	26.2900 	0.000 	0.000 	-169.800 	33.800 	0.000
102.6700 	26.3700 	0.000 	0.000 	-169.800 	33.800 	0.000
102.6700 	26.4500 	0.000 	0.000 	-169.800 	33.800 	0.000
102.6700 	26.5300 	0.000 	0.000 	-169.800 	33.800 	0.000
102.6700 	26.6100 	0.000 	0.000 	-169.800 	33.800 	0.000
102.7500 	23.6500 	0.000 	0.000 	-169.800 	33.800 	0.000
102.7500 	23.7300 	0.000 	0.000 	-169.800 	33.800 	0.000
102.7500 	23.8100 	0.000 	0.000 	-169.800 	33.800 	0.000
102.7500 	23.8900 	0.000 	0.000 	-169.800 	33.800 	0.000
102.7500 	23.9700 	0.000 	0.000 	-169.800 	33.800 	0.000
102.7500 	24.0500 	0.000 	0.000 	-169.800 	33.800 	0.000
102.7500 	24.1300 	0.000 	0.000 	-169.800 	33.800 	0.000
102.7500 	24.2100 	0.000 	0.000 	-169.800 	33.800 	0.000
102.7500 	24.2900 	0.000 	0.000 	-169.800 	33.800 	0.000
102.7500 	24.3700 	0.000 	0.000 	-169.800 	33.800 	0.000
102.7500 	24.4500 	0.000 	0.000 	-169.800 	33.800 	0.000
102.7500 	24.5300 	0.000 	0.000 	-169.800 	33.800 	0.000
102.7500 	24.6100 	0.000 	0.000 	-169.800 	33.800 	0.000
102.7500 	24.6900 	0.000 	0.000 	-169.800 	33.800 	0.000
102.7500 	24.7700 	0.000 	0.000 	-169.800 	33.800 	0.000
102.7500 	24.8500 	0.000 	0.000 	-169.800 	33.800 	0.000
102.7500 	24.9300 	0.000 	0.000 	-169.800 	33.800 	0.000
102.7500 	25.0100 	0.000 	0.000 	-169.800 	33.800 	0.000
102.7500 	25.0900 	0.000 	0.000 	-169.800 	33.800 	0.000
102.7500 	25.1700 	0.000 	0.000 	-169.800 	33.800 	0.000
102.7500 	25.2500 	0.000 	0.000 	-169.800 	33.800 	0.000
102.7500 	25.3300 	0.000 	0.000 	-169.800 	33.800 	0.000
102.7500 	25.4100 	0.000 	0.000 	-169.800 	33.800 	0.000
102.7500 	25.4900 	0.000 	0.000 	-169.800 	33.800 	0.000
102.7500 	25.5700 	0.000 	0.000 	-169.800 	33.800 	0.000
102.7500 	25.6500 	0.000 	0.000 	-169.800 	33.800 	0.000
102.7500 	25.7300 	0.000 	0.000 	-169.800 	33.800 	0.000
102.7500 	25.8100 	0.000 	0.000 	-169.800 	33.800 	0.000
102.7500 	25.8900 	0.000 	0.000 	-169.800 	33.800 	0.000
102.7500 	25.9700 	0.000 	0.000 	-169.800 	33.800 	0.000
102.7500 	26.0500 	0.000 	0.000 	-169.800 	33.800 	0.000
102.7500 	26.1300 	0.000 	0.000 	-169.800 	33.800 	0.000
102.7500 	26.2100 	0.000 	0.000 	-169.800 	33.800 	0.000
102.7500 	26.2900 	0.000 	0.000 	-169.800 	33.800 	0.000
102.7500 	26.3700 	0.000 	0.000 	-169.800 	33.800 	0.000
102.7500 	26.4500 	0.000 	0.000 	-169.800 	33.800 	0.000
102.7500 	26.5300 	0.000 	0.000 	-169.800 	33.800 	0.000
102.7500 	26.6100 	0.000 	0.000 	-169.800 	33.800 	0.000
102.7500 	26.6900 	0.000 	0.000 	-169.800 	33.800 	0.000
102.8300 	23.6500 	0.000 	0.000 	-169.800 	33.800 	0.000
102.8300 	23.7300 	0.000 	0.000 	-169.800 	33.800 	0.000
102.8300 	23.8100 	0.000 	0.000 	-169.800 	33.800 	0.000
102.8300 	23.8900 	0.000 	0.000 	-169.800 	33.800 	0.000
102.8300 	23.9700 	0.000 	0.000 	-169.800 	33.800 	0.000
102.8300 	24.0500 	0.000 	0.000 	-169.800 	33.800 	0.000
102.8300 	24.1300 	0.000 	0.000 	-169.800 	33.800 	0.000
102.8300 	24.2100 	0.000 	0.000 	-169.800 	33.800 	0.000
102.8300 	24.2900 	0.000 	0.000 	-169.800 	33.800 	0.000
102.8300 	24.3700 	0.000 	0.000 	-169.800 	33.800 	0.000
102.8300 	24.4500 	0.000 	0.000 	-169.800 	33.800 	0.000
102.8300 	24.5300 	0.000 	0.000 	-169.800 	33.800 	0.000
102.8300 	24.6100 	0.000 	0.000 	-169.800 	33.800 	0.000
102.8300 	24.6900 	0.000 	0.000 	-169.800 	33.800 	0.000
102.8300 	24.7700 	0.000 	0.000 	-169.800 	33.800 	0.000
102.8300 	24.8500 	0.000 	0.000 	-169.800 	33.800 	0.000
102.8300 	24.9300 	0.000 	0.000 	-169.800 	33.800 	0.000
102.8300 	25.0100 	0.000 	0.000 	-169.800 	33.800 	0.000
102.8300 	25.0900 	0.000 	0.000 	-169.800 	33.800 	0.000
102.8300 	25.1700 	0.000 	0.000 	-169.800 	33.800 	0.000
102.8300 	25.2500 	0.000 	0.000 	-169.800 	33.800 	0.000
102.8300 	25.3300 	0.000 	0.000 	-169.800 	33.800 	0.000
102.8300 	25.4100 	0.000 	0.000 	-169.800 	33.800 	0.000
102.8300 	25.4900 	0.000 	0.000 	-169.800 	33.800 	0.000
102.8300 	25.5700 	0.000 	0.000 	-169.800 	33.800 	0.000
102.8300 	25.6500 	0.000 	0.000 	-169.800 	33.800 	0.000
102.8300 	25.7300 	0.000 	0.000 	-169.800 	33.800 	0.000
102.8300 	25.8100 	0.000 	0.000 	-169.800 	33.800 	0.000
102.8300 	25.8900 	0.000 	0.000 	-169.800 	33.800 	0.000
102.8300 	25.9700 	0.000 	0.000 	-169.800 	33.800 	0.000
102.8300 	26.0500 	0.000 	0.000 	-169.800 	33.800 	0.000
102.8300 	26.1300 	0.000 	0.000 	-169.800 	33.800 	0.000
102.8300 	26.2100 	0.000 	0.000 	-169.800 	33.800 	0.000
102.8300 	26.2900 	0.000 	0.000 	-169.800 	33.800 	0.000
102.8300 	26.3700 	0.000 	0.000 	-169.800 	33.800 	0.000
102.8300 	26.4500 	0.000 	0.000 	-169.800 	33.800 	0.000
102.8300 	26.5300 	0.000 	0.000 	-169.800 	33.800 	0.000
102.8300 	26.6100 	0.000 	0.000 	-169.800 	33.800 	0.000
102.8300 	26.6900 	0.000 	0.000 	-169.800 	33.800 	0.000
102.8300 	26.7700 	0.000 	0.000 	-169.800 	33.800 	0.000
102.8300 	26.8500 	0.000 	0.000 	-169.800 	33.800 	0.000
102.9100 	23.8900 	0.000 	0.000 	-169.800 	33.800 	0.000
102.9100 	23.9700 	0.000 	0.000 	-169.800 	33.800 	0.000
102.9100 	24.0500 	0.000 	0.000 	-169.800 	33.800 	0.000
102.9100 	24.1300 	0.000 	0.000 	-169.800 	33.800 	0.000
102.9100 	24.2100 	0.000 	0.000 	-169.800 	33.800 	0.000
102.9100 	24.2900 	0.000 	0.000 	-169.800 	33.800 	0.000
102.9100 	24.3700 	0.000 	0.000 	-169.800 	33.800 	0.000
102.9100 	24.4500 	0.000 	0.000 	-169.800 	33.800 	0.000
102.9100 	24.5300 	0.000 	0.000 	-169.800 	33.800 	0.000
102.9100 	24.6100 	0.000 	0.000 	-169.800 	33.800 	0.000
102.9100 	24.6900 	0.000 	0.000 	-169.800 	33.800 	0.000
102.9100 	24.7700 	0.000 	0.000 	-169.800 	33.800 	0.000
102.9100 	24.8500 	0.000 	0.000 	-169.800 	33.800 	0.000
102.9100 	24.9300 	0.000 	0.000 	-169.800 	33.800 	0.000
102.9100 	25.0100 	0.000 	0.000 	-169.800 	33.800 	0.000
102.9100 	25.0900 	0.000 	0.000 	-169.800 	33.800 	0.000
102.9100 	25.1700 	0.000 	0.000 	-169.800 	33.800 	0.000
102.9100 	25.2500 	0.000 	0.000 	-169.800 	33.800 	0.000
102.9100 	25.3300 	0.000 	0.000 	-169.800 	33.800 	0.000
102.9100 	25.4100 	0.000 	0.000 	-169.800 	33.800 	0.000
102.9100 	25.4900 	0.000 	0.000 	-169.800 	33.800 	0.000
102.9100 	25.5700 	0.000 	0.000 	-169.800 	33.800 	0.000
102.9100 	25.6500 	0.000 	0.000 	-169.800 	33.800 	0.000
102.9100 	25.7300 	0.000 	0.000 	-169.800 	33.800 	0.000
102.9100 	25.8100 	0.000 	0.000 	-169.800 	33.800 	0.000
102.9100 	25.8900 	0.000 	0.000 	-169.800 	33.800 	0.000
102.9100 	25.9700 	0.000 	0.000 	-169.800 	33.800 	0.000
102.9100 	26.0500 	0.000 	0.000 	-169.800 	33.800 	0.000
102.9100 	26.1300 	0.000 	0.000 	-169.800 	33.800 	0.000
102.9100 	26.2100 	0.000 	0.000 	-169.800 	33.800 	0.000
102.9100 	26.2900 	0.000 	0.000 	-169.800 	33.800 	0.000
102.9100 	26.3700 	0.000 	0.000 	-169.800 	33.800 	0.000
102.9100 	26.4500 	0.000 	0.000 	-169.800 	33.800 	0.000
102.9100 	26.5300 	0.000 	0.000 	-169.800 	33.800 	0.000
102.9100 	26.6100 	0.000 	0.000 	-169.800 	33.800 	0.000
102.9100 	26.6900 	0.000 	0.000 	-169.800 	33.800 	0.000
102.9100 	26.7700 	0.000 	0.000 	-169.800 	33.800 	0.000
102.9100 	26.8500 	0.000 	0.000 	-169.800 	33.800 	0.000
102.9100 	26.9300 	0.000 	0.000 	-169.800 	33.800 	0.000
102.9100 	27.0100 	0.000 	0.000 	-169.800 	33.800 	0.000
102.9900 	24.2100 	0.000 	0.000 	-169.800 	33.800 	0.000
102.9900 	24.2900 	0.000 	0.000 	-169.800 	33.800 	0.000
102.9900 	24.3700 	0.000 	0.000 	-169.800 	33.800 	0.000
102.9900 	24.4500 	0.000 	0.000 	-169.800 	33.800 	0.000
102.9900 	24.5300 	0.000 	0.000 	-169.800 	33.800 	0.000
102.9900 	24.6100 	0.000 	0.000 	-169.800 	33.800 	0.000
102.9900 	24.6900 	0.000 	0.000 	-169.800 	33.800 	0.000
102.9900 	24.7700 	0.000 	0.000 	-169.800 	33.800 	0.000
102.9900 	24.8500 	0.000 	0.000 	-169.800 	33.800 	0.000
102.9900 	24.9300 	0.000 	0.000 	-169.800 	33.800 	0.000
102.9900 	25.0100 	0.000 	0.000 	-169.800 	33.800 	0.000
102.9900 	25.0900 	0.000 	0.000 	-169.800 	33.800 	0.000
102.9900 	25.1700 	0.000 	0.000 	-169.800 	33.800 	0.000
102.9900 	25.2500 	0.000 	0.000 	-169.800 	33.800 	0.000
102.9900 	25.3300 	0.000 	0.000 	-169.800 	33.800 	0.000
102.9900 	25.4100 	0.000 	0.000 	-169.800 	33.800 	0.000
102.9900 	25.4900 	0.000 	0.000 	-169.800 	33.800 	0.000
102.9900 	25.5700 	0.000 	0.000 	-169.800 	33.800 	0.000
102.9900 	25.6500 	0.000 	0.000 	-169.800 	33.800 	0.000
102.9900 	25.7300 	0.000 	0.000 	-169.800 	33.800 	0.000
102.9900 	25.8100 	0.000 	0.000 	-169.800 	33.800 	0.000
102.9900 	25.8900 	0.000 	0.000 	-169.800 	33.800 	0.000
102.9900 	25.9700 	0.000 	0.000 	-169.800 	33.800 	0.000
102.9900 	26.0500 	0.000 	0.000 	-169.800 	33.800 	0.000
102.9900 	26.1300 	0.000 	0.000 	-169.800 	33.800 	0.000
102.9900 	26.2100 	0.000 	0.000 	-169.800 	33.800 	0.000
102.9900 	26.2900 	0.000 	0.000 	-169.800 	33.800 	0.000
102.9900 	26.3700 	0.000 	0.000 	-169.800 	33.800 	0.000
102.9900 	26.4500 	0.000 	0.000 	-169.800 	33.800 	0.000
102.9900 	26.5300 	0.000 	0.000 	-169.800 	33.800 	0.000
102.9900 	26.6100 	0.000 	0.000 	-169.800 	33.800 	0.000
102.9900 	26.6900 	0.000 	0.000 	-169.800 	33.800 	0.000
102.9900 	26.7700 	0.000 	0.000 	-169.800 	33.800 	0.000
102.9900 	26.8500 	0.000 	0.000 	-169.800 	33.800 	0.000
102.9900 	26.9300 	0.000 	0.000 	-169.800 	33.800 	0.000
102.9900 	27.0100 	0.000 	0.000 	-169.800 	33.800 	0.000
102.9900 	27.0900 	0.000 	0.000 	-169.800 	33.800 	0.000
103.0700 	24.6100 	0.000 	0.000 	-169.800 	33.800 	0.000
103.0700 	24.6900 	0.000 	0.000 	-169.800 	33.800 	0.000
103.0700 	24.7700 	0.000 	0.000 	-169.800 	33.800 	0.000
103.0700 	24.8500 	0.000 	0.000 	-169.800 	33.800 	0.000
103.0700 	24.9300 	0.000 	0.000 	-169.800 	33.800 	0.000
103.0700 	25.0100 	0.000 	0.000 	-169.800 	33.800 	0.000
103.0700 	25.0900 	0.000 	0.000 	-169.800 	33.800 	0.000
103.0700 	25.1700 	0.000 	0.000 	-169.800 	33.800 	0.000
103.0700 	25.2500 	0.000 	0.000 	-169.800 	33.800 	0.000
103.0700 	25.3300 	0.000 	0.000 	-169.800 	33.800 	0.000
103.0700 	25.4100 	0.000 	0.000 	-169.800 	33.800 	0.000
103.0700 	25.4900 	0.000 	0.000 	-169.800 	33.800 	0.000
103.0700 	25.5700 	0.000 	0.000 	-169.800 	33.800 	0.000
103.0700 	25.6500 	0.000 	0.000 	-169.800 	33.800 	0.000
103.0700 	25.7300 	0.000 	0.000 	-169.800 	33.800 	0.000
103.0700 	25.8100 	0.000 	0.000 	-169.800 	33.800 	0.000
103.0700 	25.8900 	0.000 	0.000 	-169.800 	33.800 	0.000
103.0700 	25.9700 	0.000 	0.000 	-169.800 	33.800 	0.000
103.0700 	26.0500 	0.000 	0.000 	-169.800 	33.800 	0.000
103.0700 	26.1300 	0.000 	0.000 	-169.800 	33.800 	0.000
103.0700 	26.2100 	0.000 	0.000 	-169.800 	33.800 	0.000
103.0700 	26.2900 	0.000 	0.000 	-169.800 	33.800 	0.000
103.0700 	26.3700 	0.000 	0.000 	-169.800 	33.800 	0.000
103.0700 	26.4500 	0.000 	0.000 	-169.800 	33.800 	0.000
103.0700 	26.5300 	0.000 	0.000 	-169.800 	33.800 	0.000
103.0700 	26.6100 	0.000 	0.000 	-169.800 	33.800 	0.000
103.0700 	26.6900 	0.000 	0.000 	-169.800 	33.800 	0.000
103.0700 	26.7700 	0.000 	0.000 	-169.800 	33.800 	0.000
103.0700 	26.8500 	0.000 	0.000 	-169.800 	33.800 	0.000
103.0700 	26.9300 	0.000 	0.000 	-169.800 	33.800 	0.000
103.0700 	27.0100 	0.000 	0.000 	-169.800 	33.800 	0.000
103.0700 	27.0900 	0.000 	0.000 	-169.800 	33.800 	0.000
103.0700 	27.1700 	0.000 	0.000 	-169.800 	33.800 	0.000
103.0700 	27.2500 	0.000 	0.000 	-169.800 	33.800 	0.000
103.1500 	25.0100 	0.000 	0.000 	-169.800 	33.800 	0.000
103.1500 	25.0900 	0.000 	0.000 	-169.800 	33.800 	0.000
103.1500 	25.1700 	0.000 	0.000 	-169.800 	33.800 	0.000
103.1500 	25.2500 	0.000 	0.000 	-169.800 	33.800 	0.000
103.1500 	25.3300 	0.000 	0.000 	-169.800 	33.800 	0.000
103.1500 	25.4100 	0.000 	0.000 	-169.800 	33.800 	0.000
103.1500 	25.4900 	0.000 	0.000 	-169.800 	33.800 	0.000
103.1500 	25.5700 	0.000 	0.000 	-169.800 	33.800 	0.000
103.1500 	25.6500 	0.000 	0.000 	-169.800 	33.800 	0.000
103.1500 	25.7300 	0.000 	0.000 	-169.800 	33.800 	0.000
103.1500 	25.8100 	0.000 	0.000 	-169.800 	33.800 	0.000
103.1500 	25.8900 	0.000 	0.000 	-169.800 	33.800 	0.000
103.1500 	25.9700 	0.000 	0.000 	-169.800 	33.800 	0.000
103.1500 	26.0500 	0.000 	0.000 	-169.800 	33.800 	0.000
103.1500 	26.1300 	0.000 	0.000 	-169.800 	33.800 	0.000
103.1500 	26.2100 	0.000 	0.000 	-169.800 	33.800 	0.000
103.1500 	26.2900 	0.000 	0.000 	-169.800 	33.800 	0.000
103.1500 	26.3700 	0.000 	0.000 	-169.800 	33.800 	0.000
103.1500 	26.4500 	0.000 	0.000 	-169.800 	33.800 	0.000
103.1500 	26.5300 	0.000 	0.000 	-169.800 	33.800 	0.000
103.1500 	26.6100 	0.000 	0.000 	-169.800 	33.800 	0.000
103.1500 	26.6900 	0.000 	0.000 	-169.800 	33.800 	0.000
103.1500 	26.7700 	0.000 	0.000 	-169.800 	33.800 	0.000
103.1500 	26.8500 	0.000 	0.000 	-169.800 	33.800 	0.000
103.1500 	26.9300 	0.000 	0.000 	-169.800 	33.800 	0.000
103.2300 	25.4100 	0.000 	0.000 	-169.800 	33.800 	0.000
103.2300 	25.4900 	0.000 	0.000 	-169.800 	33.800 	0.000
103.2300 	25.5700 	0.000 	0.000 	-169.800 	33.800 	0.000
103.2300 	25.6500 	0.000 	0.000 	-169.800 	33.800 	0.000
103.2300 	25.7300 	0.000 	0.000 	-169.800 	33.800 	0.000
103.2300 	25.8100 	0.000 	0.000 	-169.800 	33.800 	0.000
103.2300 	25.8900 	0.000 	0.000 	-169.800 	33.800 	0.000
103.2300 	25.9700 	0.000 	0.000 	-169.800 	33.800 	0.000
103.2300 	26.0500 	0.000 	0.000 	-169.800 	33.800 	0.000
103.2300 	26.1300 	0.000 	0.000 	-169.800 	33.800 	0.000
103.2300 	26.2100 	0.000 	0.000 	-169.800 	33.800 	0.000
