       Long(deg)       Lati(deg)            H(m)             LOS(cm)            Azi(deg)            Inc(deg)             Sig(cm)
       62.193890       34.846668           0.000              -0.223             350.311              43.489               0.740
       62.260555       34.860001           0.000              -0.181             350.350              43.820               0.740
       62.287224       34.860001           0.000              -0.131             350.365              43.952               0.740
       61.953888       34.820000           0.000              -0.325             350.170              42.276               0.740
       62.007221       34.820000           0.000              -0.140             350.200              42.546               0.740
       62.060555       34.820000           0.000              -0.063             350.230              42.812               0.740
       62.113888       34.820000           0.000              -0.250             350.261              43.070               0.740
       62.273888       34.820000           0.000               0.102             350.351              43.848               0.740
       61.887222       34.806667           0.000              -0.987             350.131              41.923               0.740
       61.913887       34.806667           0.000              -0.721             350.146              42.057               0.740
       61.873890       34.740002           0.000              -0.273             350.113              41.795               0.740
       61.980556       34.740002           0.000               0.140             350.173              42.340               0.740
       62.087223       34.740002           0.000              -0.062             350.233              42.869               0.740
       62.193890       34.740002           0.000               0.165             350.293              43.393               0.740
       62.273888       34.766666           0.000               0.348             350.342              43.799               0.740
       61.633888       34.713333           0.000              -0.235             349.973              40.511               0.740
       61.687222       34.713333           0.000              -0.474             350.003              40.791               0.740
       61.740555       34.713333           0.000              -0.693             350.033              41.071               0.740
       61.793888       34.713333           0.000              -0.265             350.063              41.348               0.740
       62.273888       34.713333           0.000               0.587             350.333              43.761               0.740
       61.540554       34.700001           0.000               0.148             349.918              40.001               0.740
       61.567223       34.700001           0.000               0.006             349.933              40.148               0.740
       61.593887       34.700001           0.000              -0.018             349.948              40.284               0.740
       61.553890       34.633335           0.000               0.081             349.916              40.001               0.740
       61.660557       34.633335           0.000              -0.426             349.976              40.566               0.740
       61.727222       34.673332           0.000              -0.291             350.020              40.960               0.740
       61.753887       34.673332           0.000               0.263             350.034              41.095               0.740
       61.780556       34.673332           0.000               0.848             350.050              41.238               0.740
       61.800556       34.680000           0.000               0.945             350.062              41.351               0.740
       61.813889       34.680000           0.000               1.074             350.069              41.415               0.740
       61.827221       34.680000           0.000               1.118             350.077              41.484               0.740
       61.840557       34.680000           0.000               1.150             350.085              41.557               0.740
       61.853889       34.680000           0.000               0.756             350.092              41.625               0.740
       61.867222       34.680000           0.000               0.441             350.099              41.690               0.740
       61.880554       34.680000           0.000               0.328             350.107              41.759               0.740
       61.893890       34.680000           0.000               0.649             350.115              41.832               0.740
       61.907223       34.680000           0.000               0.443             350.122              41.901               0.740
       61.920555       34.680000           0.000               0.241             350.129              41.965               0.740
       61.933887       34.680000           0.000              -0.032             350.137              42.034               0.740
       61.947224       34.680000           0.000              -0.164             350.145              42.108               0.740
       61.960556       34.680000           0.000              -0.345             350.152              42.177               0.740
       61.973888       34.680000           0.000              -0.173             350.159              42.240               0.740
       61.987221       34.680000           0.000              -0.147             350.167              42.306               0.740
       62.000557       34.680000           0.000               0.231             350.175              42.376               0.740
       62.020557       34.673332           0.000               0.815             350.185              42.467               0.740
       62.087223       34.633335           0.000               1.485             350.216              42.757               0.740
       62.193890       34.633335           0.000               1.450             350.276              43.298               0.740
       62.273888       34.660000           0.000               0.992             350.324              43.725               0.740
       61.800556       34.666668           0.000               1.069             350.060              41.336               0.740
       61.813889       34.666668           0.000               1.353             350.067              41.400               0.740
       61.827221       34.666668           0.000               1.261             350.075              41.470               0.740
       61.840557       34.666668           0.000               0.855             350.083              41.543               0.740
       61.853889       34.666668           0.000               0.408             350.090              41.612               0.740
       61.867222       34.666668           0.000               0.520             350.097              41.677               0.740
       61.880554       34.666668           0.000               0.716             350.105              41.746               0.740
       61.893890       34.666668           0.000               0.439             350.113              41.819               0.740
       61.907223       34.666668           0.000               0.239             350.120              41.887               0.740
       61.920555       34.666668           0.000               0.158             350.127              41.951               0.740
       61.933887       34.666668           0.000               0.123             350.135              42.020               0.740
       61.947224       34.666668           0.000              -0.059             350.143              42.092               0.740
       61.960556       34.666668           0.000               0.012             350.150              42.161               0.740
       61.973888       34.666668           0.000               0.330             350.157              42.224               0.740
       61.987221       34.666668           0.000               0.389             350.165              42.290               0.740
       62.000557       34.666668           0.000               0.688             350.173              42.361               0.740
       61.720554       34.653332           0.000              -0.556             350.012              40.899               0.740
       61.733891       34.653332           0.000              -0.447             350.020              40.973               0.740
       61.747223       34.653332           0.000               0.287             350.028              41.042               0.740
       61.760555       34.653332           0.000               1.153             350.035              41.107               0.740
       61.773888       34.653332           0.000               0.956             350.042              41.177               0.740
       61.787224       34.653332           0.000               0.995             350.050              41.251               0.740
       61.800556       34.653332           0.000               0.561             350.058              41.320               0.740
       61.813889       34.653332           0.000               0.327             350.065              41.385               0.740
       61.827221       34.653332           0.000               0.555             350.072              41.455               0.740
       61.840557       34.653332           0.000               0.894             350.080              41.528               0.740
       61.853889       34.653332           0.000               0.800             350.088              41.598               0.740
       61.867222       34.653332           0.000               0.657             350.095              41.663               0.740
       61.880554       34.653332           0.000               0.382             350.102              41.732               0.740
       61.893890       34.653332           0.000               0.132             350.110              41.805               0.740
       61.907223       34.653332           0.000               0.079             350.118              41.872               0.740
       61.920555       34.653332           0.000               0.083             350.125              41.936               0.740
       61.933887       34.653332           0.000               0.175             350.132              42.004               0.740
       61.947224       34.653332           0.000               0.250             350.140              42.076               0.740
       61.960556       34.653332           0.000               0.383             350.148              42.144               0.740
       61.973888       34.653332           0.000               0.544             350.155              42.207               0.740
       61.987221       34.653332           0.000               0.515             350.162              42.273               0.740
       62.000557       34.653332           0.000               0.490             350.170              42.344               0.740
       62.013889       34.653332           0.000               0.573             350.178              42.411               0.740
       62.027222       34.653332           0.000               0.768             350.185              42.473               0.740
       61.720554       34.639999           0.000              -0.423             350.010              40.885               0.740
       61.733891       34.639999           0.000              -0.430             350.018              40.958               0.740
       61.747223       34.639999           0.000               0.555             350.026              41.028               0.740
       61.760555       34.639999           0.000               2.534             350.033              41.093               0.740
       61.773888       34.639999           0.000               1.615             350.040              41.162               0.740
       61.787224       34.639999           0.000               0.515             350.048              41.236               0.740
       61.800556       34.639999           0.000               1.152             350.056              41.306               0.740
       61.813889       34.639999           0.000               0.342             350.063              41.371               0.740
       61.827221       34.639999           0.000               0.476             350.070              41.440               0.740
       61.840557       34.639999           0.000               0.809             350.078              41.514               0.740
       61.853889       34.639999           0.000               0.563             350.086              41.584               0.740
       61.867222       34.639999           0.000               0.275             350.093              41.649               0.740
       61.880554       34.639999           0.000               0.138             350.100              41.719               0.740
       61.893890       34.639999           0.000              -0.176             350.108              41.791               0.740
       61.907223       34.639999           0.000              -0.253             350.116              41.858               0.740
       61.920555       34.639999           0.000              -0.088             350.123              41.921               0.740
       61.933887       34.639999           0.000               0.163             350.130              41.989               0.740
       61.947224       34.639999           0.000               0.171             350.138              42.060               0.740
       61.960556       34.639999           0.000               0.362             350.146              42.128               0.740
       61.973888       34.639999           0.000               0.653             350.153              42.191               0.740
       61.987221       34.639999           0.000               0.590             350.160              42.257               0.740
       62.000557       34.639999           0.000               0.754             350.168              42.329               0.740
       62.013889       34.639999           0.000               0.953             350.176              42.395               0.740
       62.027222       34.639999           0.000               1.008             350.183              42.458               0.740
       61.720554       34.626667           0.000              -0.646             350.008              40.871               0.740
       61.733891       34.626667           0.000              -0.715             350.016              40.945               0.740
       61.747223       34.626667           0.000              -0.457             350.024              41.014               0.740
       61.760555       34.626667           0.000               0.812             350.031              41.080               0.740
       61.773888       34.626667           0.000               2.488             350.038              41.149               0.740
       61.787224       34.626667           0.000               3.198             350.046              41.223               0.740
       61.800556       34.626667           0.000               2.216             350.054              41.293               0.740
       61.813889       34.626667           0.000              -0.546             350.061              41.358               0.740
       61.827221       34.626667           0.000              -1.099             350.068              41.427               0.740
       61.840557       34.626667           0.000              -0.356             350.076              41.501               0.740
       61.853889       34.626667           0.000               0.242             350.084              41.570               0.740
       61.867222       34.626667           0.000               0.222             350.091              41.635               0.740
       61.880554       34.626667           0.000              -0.294             350.098              41.704               0.740
       61.893890       34.626667           0.000              -0.618             350.106              41.776               0.740
       61.907223       34.626667           0.000              -0.549             350.114              41.844               0.740
       61.920555       34.626667           0.000              -0.384             350.121              41.907               0.740
       61.933887       34.626667           0.000              -0.433             350.128              41.974               0.740
       61.947224       34.626667           0.000              -0.355             350.136              42.046               0.740
       61.960556       34.626667           0.000              -0.116             350.144              42.113               0.740
       61.973888       34.626667           0.000               0.800             350.151              42.176               0.740
       61.987221       34.626667           0.000               1.263             350.158              42.243               0.740
       62.000557       34.626667           0.000               1.520             350.166              42.314               0.740
       62.013889       34.626667           0.000               1.776             350.174              42.381               0.740
       62.027222       34.626667           0.000               1.674             350.181              42.444               0.740
       62.273888       34.606667           0.000               0.352             350.316              43.665               0.740
       61.720554       34.613335           0.000              -0.658             350.006              40.856               0.740
       61.733891       34.613335           0.000              -0.712             350.014              40.930               0.740
       61.747223       34.613335           0.000              -0.233             350.022              41.000               0.740
       61.760555       34.613335           0.000               1.019             350.029              41.065               0.740
       61.773888       34.613335           0.000               2.994             350.036              41.135               0.740
       61.787224       34.613335           0.000               4.401             350.044              41.209               0.740
       61.800556       34.613335           0.000               2.382             350.052              41.279               0.740
       61.813889       34.613335           0.000              -0.756             350.059              41.343               0.740
       61.827221       34.613335           0.000              -2.280             350.066              41.413               0.740
       61.840557       34.613335           0.000              -1.108             350.074              41.486               0.740
       61.853889       34.613335           0.000              -0.110             350.082              41.555               0.740
       61.867222       34.613335           0.000              -0.199             350.089              41.620               0.740
       61.880554       34.613335           0.000              -0.407             350.096              41.689               0.740
       61.893890       34.613335           0.000              -0.746             350.104              41.761               0.740
       61.907223       34.613335           0.000              -0.969             350.112              41.828               0.740
       61.920555       34.613335           0.000              -0.983             350.119              41.891               0.740
       61.933887       34.613335           0.000              -1.071             350.126              41.959               0.740
       61.947224       34.613335           0.000              -0.709             350.134              42.030               0.740
       61.960556       34.613335           0.000              -0.095             350.142              42.098               0.740
       61.973888       34.613335           0.000               0.821             350.149              42.161               0.740
       61.987221       34.613335           0.000               1.378             350.156              42.228               0.740
       62.000557       34.613335           0.000               1.642             350.164              42.299               0.740
       62.013889       34.613335           0.000               2.090             350.172              42.366               0.740
       62.027222       34.613335           0.000               1.881             350.179              42.428               0.740
       61.720554       34.599998           0.000              -0.476             350.004              40.841               0.740
       61.733891       34.599998           0.000              -0.392             350.012              40.915               0.740
       61.747223       34.599998           0.000               0.921             350.019              40.985               0.740
       61.760555       34.599998           0.000               3.434             350.026              41.050               0.740
       61.773888       34.599998           0.000               5.492             350.034              41.120               0.740
       61.787224       34.599998           0.000               4.501             350.042              41.194               0.740
       61.800556       34.599998           0.000               1.425             350.049              41.264               0.740
       61.813889       34.599998           0.000               0.494             350.056              41.328               0.740
       61.827221       34.599998           0.000              -1.826             350.064              41.397               0.740
       61.840557       34.599998           0.000              -1.706             350.072              41.470               0.740
       61.853889       34.599998           0.000              -0.668             350.079              41.539               0.740
       61.867222       34.599998           0.000              -0.142             350.086              41.604               0.740
       61.880554       34.599998           0.000              -0.048             350.094              41.672               0.740
       61.893890       34.599998           0.000              -0.264             350.102              41.744               0.740
       61.907223       34.599998           0.000              -0.985             350.109              41.812               0.740
       61.920555       34.599998           0.000              -1.410             350.116              41.875               0.740
       61.933887       34.599998           0.000              -1.269             350.124              41.942               0.740
       61.947224       34.599998           0.000              -1.088             350.132              42.014               0.740
       61.960556       34.599998           0.000              -0.813             350.139              42.081               0.740
       61.973888       34.599998           0.000              -0.187             350.146              42.144               0.740
       61.987221       34.599998           0.000               0.563             350.154              42.211               0.740
       62.000557       34.599998           0.000               1.459             350.162              42.282               0.740
       62.013889       34.599998           0.000               2.063             350.169              42.350               0.740
       62.027222       34.599998           0.000               1.895             350.176              42.412               0.740
       61.720554       34.586666           0.000              -0.421             350.002              40.826               0.740
       61.733891       34.586666           0.000              -0.522             350.010              40.900               0.740
       61.747223       34.586666           0.000              -0.066             350.017              40.970               0.740
       61.760555       34.586666           0.000               1.746             350.024              41.035               0.740
       61.773888       34.586666           0.000               5.417             350.032              41.105               0.740
       61.787224       34.586666           0.000               5.026             350.040              41.179               0.740
       61.800556       34.586666           0.000               4.569             350.047              41.249               0.740
       61.813889       34.586666           0.000               5.622             350.054              41.313               0.740
       61.827221       34.586666           0.000              -0.219             350.062              41.382               0.740
       61.840557       34.586666           0.000              -2.170             350.070              41.455               0.740
       61.853889       34.586666           0.000              -1.308             350.077              41.524               0.740
       61.867222       34.586666           0.000              -0.117             350.084              41.588               0.740
       61.880554       34.586666           0.000               0.430             350.092              41.657               0.740
       61.893890       34.586666           0.000               0.078             350.100              41.729               0.740
       61.907223       34.586666           0.000              -0.759             350.107              41.797               0.740
       61.920555       34.586666           0.000              -1.029             350.114              41.860               0.740
       61.933887       34.586666           0.000              -1.252             350.122              41.927               0.740
       61.947224       34.586666           0.000              -1.809             350.130              41.998               0.740
       61.960556       34.586666           0.000              -2.244             350.137              42.066               0.740
       61.973888       34.586666           0.000              -1.687             350.144              42.129               0.740
       61.987221       34.586666           0.000              -0.203             350.152              42.196               0.740
       62.000557       34.586666           0.000               0.443             350.160              42.268               0.740
       62.013889       34.586666           0.000               1.466             350.167              42.335               0.740
       62.027222       34.586666           0.000               1.642             350.174              42.398               0.740
       61.553890       34.526669           0.000              -0.309             349.899              39.882               0.740
       61.660557       34.526669           0.000              -0.777             349.959              40.446               0.740
       61.720554       34.573334           0.000              -0.653             350.000              40.813               0.740
       61.733891       34.573334           0.000              -0.927             350.008              40.887               0.740
       61.747223       34.573334           0.000              -0.940             350.015              40.956               0.740
       61.760555       34.573334           0.000              -0.118             350.022              41.021               0.740
       61.773888       34.573334           0.000               1.570             350.030              41.091               0.740
       61.787224       34.573334           0.000               3.089             350.038              41.165               0.740
       61.800556       34.573334           0.000               3.181             350.045              41.234               0.740
       61.813889       34.573334           0.000               3.739             350.052              41.299               0.740
       61.827221       34.573334           0.000               2.311             350.060              41.368               0.740
       61.840557       34.573334           0.000              -0.397             350.068              41.441               0.740
       61.853889       34.573334           0.000              -0.612             350.075              41.510               0.740
       61.867222       34.573334           0.000              -0.806             350.082              41.574               0.740
       61.880554       34.573334           0.000              -0.398             350.090              41.643               0.740
       61.893890       34.573334           0.000              -0.194             350.098              41.715               0.740
       61.907223       34.573334           0.000               0.312             350.105              41.782               0.740
       61.920555       34.573334           0.000               0.095             350.112              41.845               0.740
       61.933887       34.573334           0.000              -0.622             350.120              41.913               0.740
       61.947224       34.573334           0.000              -2.562             350.128              41.984               0.740
       61.960556       34.573334           0.000              -3.992             350.135              42.051               0.740
       61.973888       34.573334           0.000              -1.739             350.142              42.114               0.740
       61.987221       34.573334           0.000               0.269             350.150              42.182               0.740
       62.000557       34.573334           0.000               0.188             350.158              42.254               0.740
       62.013889       34.573334           0.000               0.549             350.165              42.321               0.740
       62.027222       34.573334           0.000               0.159             350.172              42.385               0.740
       62.040554       34.573334           0.000               0.573             350.180              42.452               0.740
       62.053890       34.573334           0.000               1.411             350.188              42.524               0.740
       62.067223       34.573334           0.000               2.146             350.195              42.591               0.740
       62.080555       34.573334           0.000               2.630             350.202              42.654               0.740
       62.113888       34.553333           0.000               3.271             350.217              42.800               0.740
       62.193890       34.526669           0.000               1.270             350.258              43.174               0.740
       62.273888       34.553333           0.000              -0.080             350.307              43.595               0.740
       61.720554       34.560001           0.000              -0.198             349.998              40.799               0.740
       61.733891       34.560001           0.000              -0.741             350.006              40.872               0.740
       61.747223       34.560001           0.000              -0.944             350.013              40.942               0.740
       61.760555       34.560001           0.000              -0.775             350.020              41.007               0.740
       61.773888       34.560001           0.000              -0.321             350.028              41.076               0.740
       61.787224       34.560001           0.000               0.477             350.036              41.150               0.740
       61.800556       34.560001           0.000              -0.009             350.043              41.219               0.740
       61.813889       34.560001           0.000              -0.793             350.050              41.284               0.740
       61.827221       34.560001           0.000              -1.044             350.058              41.352               0.740
       61.840557       34.560001           0.000              -0.211             350.066              41.426               0.740
       61.853889       34.560001           0.000              -1.273             350.073              41.495               0.740
       61.867222       34.560001           0.000              -3.132             350.080              41.559               0.740
       61.880554       34.560001           0.000              -2.709             350.088              41.628               0.740
       61.893890       34.560001           0.000              -0.801             350.096              41.700               0.740
       61.907223       34.560001           0.000               1.005             350.103              41.767               0.740
       61.920555       34.560001           0.000               1.042             350.110              41.830               0.740
       61.933887       34.560001           0.000               0.117             350.118              41.897               0.740
       61.947224       34.560001           0.000               0.212             350.126              41.968               0.740
       61.960556       34.560001           0.000               0.540             350.133              42.036               0.740
       61.973888       34.560001           0.000               3.433             350.140              42.099               0.740
       61.987221       34.560001           0.000               2.881             350.148              42.167               0.740
       62.000557       34.560001           0.000              -0.656             350.155              42.239               0.740
       62.013889       34.560001           0.000              -3.396             350.163              42.307               0.740
       62.027222       34.560001           0.000              -2.374             350.170              42.370               0.740
       62.040554       34.560001           0.000              -0.094             350.177              42.438               0.740
       62.053890       34.560001           0.000               1.700             350.185              42.510               0.740
       62.067223       34.560001           0.000               2.571             350.193              42.577               0.740
       62.080555       34.560001           0.000               3.133             350.200              42.640               0.740
       61.720554       34.546665           0.000              -0.230             349.996              40.781               0.740
       61.733891       34.546665           0.000               0.105             350.003              40.855               0.740
       61.747223       34.546665           0.000              -0.408             350.011              40.924               0.740
       61.760555       34.546665           0.000              -0.954             350.018              40.989               0.740
       61.773888       34.546665           0.000              -0.864             350.026              41.059               0.740
       61.787224       34.546665           0.000              -0.400             350.033              41.133               0.740
       61.800556       34.546665           0.000              -0.401             350.041              41.202               0.740
       61.813889       34.546665           0.000              -0.225             350.048              41.267               0.740
       61.827221       34.546665           0.000               0.181             350.055              41.335               0.740
       61.840557       34.546665           0.000               0.214             350.063              41.409               0.740
       61.853889       34.546665           0.000              -0.689             350.071              41.477               0.740
       61.867222       34.546665           0.000              -0.909             350.078              41.542               0.740
       61.880554       34.546665           0.000              -1.094             350.085              41.611               0.740
       61.893890       34.546665           0.000               0.950             350.093              41.683               0.740
       61.907223       34.546665           0.000               2.073             350.101              41.750               0.740
       61.920555       34.546665           0.000               2.614             350.108              41.814               0.740
       61.933887       34.546665           0.000               1.108             350.115              41.881               0.740
       61.947224       34.546665           0.000               2.642             350.123              41.953               0.740
       61.960556       34.546665           0.000               3.062             350.131              42.020               0.740
       61.973888       34.546665           0.000               3.112             350.138              42.084               0.740
       61.987221       34.546665           0.000               1.579             350.145              42.151               0.740
       62.000557       34.546665           0.000              -2.952             350.153              42.224               0.740
       62.013889       34.546665           0.000             -10.154             350.161              42.292               0.740
       62.027222       34.546665           0.000              -7.772             350.168              42.355               0.740
       62.040554       34.546665           0.000              -1.931             350.175              42.423               0.740
       62.053890       34.546665           0.000               1.995             350.183              42.495               0.740
       62.067223       34.546665           0.000               3.322             350.191              42.562               0.740
       62.080555       34.546665           0.000               3.725             350.198              42.625               0.740
       61.720554       34.533333           0.000              -0.939             349.993              40.764               0.740
       61.733891       34.533333           0.000              -1.037             350.001              40.838               0.740
       61.747223       34.533333           0.000              -1.196             350.009              40.908               0.740
       61.760555       34.533333           0.000              -1.244             350.016              40.973               0.740
       61.773888       34.533333           0.000              -1.024             350.023              41.043               0.740
       61.787224       34.533333           0.000              -0.684             350.031              41.116               0.740
       61.800556       34.533333           0.000               0.257             350.039              41.186               0.740
       61.813889       34.533333           0.000              -0.090             350.046              41.251               0.740
       61.827221       34.533333           0.000               0.779             350.053              41.319               0.740
       61.840557       34.533333           0.000               0.779             350.061              41.392               0.740
       61.853889       34.533333           0.000               0.658             350.069              41.461               0.740
       61.867222       34.533333           0.000               0.116             350.076              41.526               0.740
       61.880554       34.533333           0.000               0.417             350.083              41.595               0.740
       61.893890       34.533333           0.000               0.746             350.091              41.667               0.740
       61.907223       34.533333           0.000               0.186             350.099              41.735               0.740
       61.920555       34.533333           0.000               1.080             350.106              41.798               0.740
       61.933887       34.533333           0.000               1.056             350.113              41.866               0.740
       61.947224       34.533333           0.000               2.237             350.121              41.938               0.740
       61.960556       34.533333           0.000               2.504             350.129              42.006               0.740
       61.973888       34.533333           0.000               1.578             350.136              42.069               0.740
       61.987221       34.533333           0.000              -2.454             350.143              42.137               0.740
       62.000557       34.533333           0.000              -6.657             350.151              42.209               0.740
       62.013889       34.533333           0.000             -10.772             350.159              42.277               0.740
       62.027222       34.533333           0.000              -8.996             350.166              42.341               0.740
       62.040554       34.533333           0.000              -1.123             350.173              42.409               0.740
       62.053890       34.533333           0.000               2.726             350.181              42.480               0.740
       62.067223       34.533333           0.000               3.825             350.188              42.548               0.740
       62.080555       34.533333           0.000               4.134             350.195              42.611               0.740
       61.740555       34.500000           0.000              -0.744             350.000              40.831               0.740
       61.773888       34.520000           0.000              -0.808             350.021              41.027               0.740
       61.787224       34.520000           0.000              -0.608             350.029              41.101               0.740
       61.800556       34.520000           0.000               0.411             350.037              41.171               0.740
       61.813889       34.520000           0.000               1.275             350.044              41.236               0.740
       61.827221       34.520000           0.000               0.910             350.051              41.304               0.740
       61.840557       34.520000           0.000               0.909             350.059              41.377               0.740
       61.853889       34.520000           0.000               1.560             350.067              41.446               0.740
       61.867222       34.520000           0.000               2.270             350.074              41.510               0.740
       61.880554       34.520000           0.000               0.070             350.081              41.579               0.740
       61.893890       34.520000           0.000              -0.263             350.089              41.652               0.740
       61.907223       34.520000           0.000              -0.837             350.097              41.720               0.740
       61.920555       34.520000           0.000              -0.247             350.104              41.784               0.740
       61.933887       34.520000           0.000               0.119             350.111              41.852               0.740
       61.947224       34.520000           0.000               1.420             350.119              41.924               0.740
       61.960556       34.520000           0.000               3.194             350.127              41.992               0.740
       61.973888       34.520000           0.000               3.789             350.134              42.056               0.740
       61.987221       34.520000           0.000               1.704             350.141              42.124               0.740
       62.000557       34.520000           0.000              -0.366             350.149              42.196               0.740
       62.013889       34.520000           0.000               0.657             350.157              42.264               0.740
       62.027222       34.520000           0.000               1.617             350.164              42.327               0.740
       62.040554       34.520000           0.000               2.359             350.171              42.395               0.740
       62.053890       34.520000           0.000               3.390             350.179              42.467               0.740
       62.067223       34.520000           0.000               3.945             350.186              42.534               0.740
       62.080555       34.520000           0.000               3.979             350.193              42.597               0.740
       62.113888       34.500000           0.000               2.802             350.209              42.744               0.740
       62.273888       34.500000           0.000               0.761             350.298              43.535               0.740
       61.773888       34.506668           0.000              -0.309             350.019              41.013               0.740
       61.787224       34.506668           0.000              -0.124             350.027              41.087               0.740
       61.800556       34.506668           0.000               0.315             350.035              41.157               0.740
       61.813889       34.506668           0.000               0.783             350.042              41.221               0.740
       61.827221       34.506668           0.000               1.473             350.049              41.290               0.740
       61.840557       34.506668           0.000               1.995             350.057              41.363               0.740
       61.853889       34.506668           0.000               2.061             350.065              41.431               0.740
       61.867222       34.506668           0.000               2.490             350.072              41.495               0.740
       61.880554       34.506668           0.000               2.591             350.079              41.564               0.740
       61.893890       34.506668           0.000               2.226             350.087              41.637               0.740
       61.907223       34.506668           0.000               2.299             350.095              41.705               0.740
       61.920555       34.506668           0.000               2.752             350.102              41.769               0.740
       61.933887       34.506668           0.000               2.797             350.109              41.837               0.740
       61.947224       34.506668           0.000               1.820             350.117              41.910               0.740
       61.960556       34.506668           0.000               1.294             350.125              41.978               0.740
       61.973888       34.506668           0.000               1.636             350.132              42.042               0.740
       61.987221       34.506668           0.000               2.017             350.139              42.110               0.740
       62.000557       34.506668           0.000               2.770             350.147              42.182               0.740
       62.013889       34.506668           0.000               3.813             350.154              42.250               0.740
       62.027222       34.506668           0.000               4.632             350.161              42.314               0.740
       62.040554       34.506668           0.000               4.534             350.169              42.382               0.740
       62.053890       34.506668           0.000               4.623             350.177              42.454               0.740
       62.067223       34.506668           0.000               4.387             350.184              42.521               0.740
       62.080555       34.506668           0.000               3.811             350.191              42.583               0.740
       61.773888       34.493332           0.000               0.146             350.017              40.998               0.740
       61.787224       34.493332           0.000               0.292             350.025              41.073               0.740
       61.800556       34.493332           0.000               0.610             350.033              41.143               0.740
       61.813889       34.493332           0.000               1.083             350.040              41.207               0.740
       61.827221       34.493332           0.000               1.501             350.047              41.275               0.740
       61.840557       34.493332           0.000               1.661             350.055              41.348               0.740
       61.853889       34.493332           0.000               1.769             350.062              41.416               0.740
       61.867222       34.493332           0.000               1.838             350.069              41.480               0.740
       61.880554       34.493332           0.000               2.086             350.077              41.548               0.740
       61.893890       34.493332           0.000               2.328             350.085              41.621               0.740
       61.907223       34.493332           0.000               2.266             350.092              41.689               0.740
       61.920555       34.493332           0.000               1.915             350.099              41.753               0.740
       61.933887       34.493332           0.000               1.264             350.107              41.822               0.740
       61.947224       34.493332           0.000               0.884             350.115              41.895               0.740
       61.960556       34.493332           0.000               1.283             350.122              41.963               0.740
       61.973888       34.493332           0.000               1.931             350.129              42.027               0.740
       61.987221       34.493332           0.000               2.391             350.137              42.095               0.740
       62.000557       34.493332           0.000               2.774             350.145              42.167               0.740
       62.013889       34.493332           0.000               3.038             350.152              42.236               0.740
       62.027222       34.493332           0.000               3.280             350.159              42.299               0.740
       62.040554       34.493332           0.000               3.636             350.167              42.367               0.740
       62.053890       34.493332           0.000               3.740             350.175              42.440               0.740
       62.067223       34.493332           0.000               3.671             350.182              42.506               0.740
       62.080555       34.493332           0.000               3.335             350.189              42.569               0.740
       61.773888       34.480000           0.000               0.190             350.015              40.984               0.740
       61.787224       34.480000           0.000               0.445             350.023              41.059               0.740
       61.800556       34.480000           0.000               0.679             350.031              41.129               0.740
       61.813889       34.480000           0.000               0.980             350.037              41.193               0.740
       61.827221       34.480000           0.000               1.341             350.045              41.261               0.740
       61.840557       34.480000           0.000               1.557             350.053              41.333               0.740
       61.853889       34.480000           0.000               1.532             350.060              41.401               0.740
       61.867222       34.480000           0.000               1.473             350.067              41.465               0.740
       61.880554       34.480000           0.000               1.691             350.075              41.533               0.740
       61.893890       34.480000           0.000               1.995             350.083              41.606               0.740
       61.907223       34.480000           0.000               1.890             350.090              41.674               0.740
       61.920555       34.480000           0.000               1.578             350.097              41.739               0.740
       61.933887       34.480000           0.000               1.752             350.105              41.807               0.740
       61.947224       34.480000           0.000               2.200             350.113              41.880               0.740
       61.960556       34.480000           0.000               2.318             350.120              41.949               0.740
       61.973888       34.480000           0.000               2.313             350.127              42.013               0.740
       61.987221       34.480000           0.000               2.590             350.135              42.081               0.740
       62.000557       34.480000           0.000               2.890             350.143              42.154               0.740
       62.013889       34.480000           0.000               2.988             350.150              42.222               0.740
       62.027222       34.480000           0.000               2.983             350.157              42.286               0.740
       62.040554       34.480000           0.000               3.144             350.164              42.354               0.740
       62.053890       34.480000           0.000               3.133             350.172              42.426               0.740
       62.067223       34.480000           0.000               3.021             350.180              42.493               0.740
       62.080555       34.480000           0.000               2.888             350.187              42.556               0.740
       61.553890       34.419998           0.000              -0.579             349.883              39.753               0.740
       61.660557       34.419998           0.000              -0.401             349.943              40.320               0.740
       61.767223       34.419998           0.000               0.361             350.002              40.882               0.740
       61.873890       34.419998           0.000               1.449             350.062              41.436               0.740
       61.980556       34.419998           0.000               2.213             350.122              41.985               0.740
       62.087223       34.419998           0.000               1.836             350.181              42.521               0.740
       62.193890       34.419998           0.000               1.041             350.241              43.058               0.740
       62.273888       34.446667           0.000               0.299             350.290              43.480               0.740
       62.273888       34.393333           0.000               0.772             350.281              43.429               0.740
       61.553890       34.313332           0.000              -0.216             349.866              39.634               0.740
       61.660557       34.313332           0.000              -0.133             349.926              40.203               0.740
       61.767223       34.313332           0.000               0.305             349.986              40.766               0.740
       61.873890       34.313332           0.000               0.369             350.045              41.323               0.740
       61.980556       34.313332           0.000               0.845             350.105              41.867               0.740
       62.060555       34.340000           0.000               1.606             350.153              42.298               0.740
       62.113888       34.340000           0.000               1.969             350.183              42.566               0.740
       62.167221       34.340000           0.000               1.610             350.213              42.833               0.740
       62.220554       34.340000           0.000               1.574             350.242              43.099               0.740
       62.260555       34.353333           0.000               1.545             350.267              43.309               0.740
       62.287224       34.353333           0.000               1.467             350.282              43.445               0.740
       61.553890       34.206665           0.000              -0.420             349.850              39.521               0.740
       61.660557       34.206665           0.000              -0.363             349.910              40.102               0.740
       61.740555       34.233334           0.000              -0.193             349.958              40.551               0.740
       61.793888       34.233334           0.000              -0.116             349.988              40.830               0.740
       61.847221       34.233334           0.000               0.122             350.018              41.104               0.740
       61.900555       34.233334           0.000               0.226             350.047              41.376               0.740
       61.940556       34.246666           0.000               0.060             350.072              41.591               0.740
       61.967224       34.246666           0.000               0.796             350.087              41.730               0.740
