      Long(deg)      Lati(deg)       H(m)    LOS(cm)      Azi(deg)       Inc(deg)     RMSE(cm)
       84.459999       29.344166           0.000              -1.182            -167.671              49.262               0.100
       85.313332       29.344166           0.000              -1.926            -167.665              44.907               0.100
       86.166664       29.344166           0.000               2.169            -167.658              40.001               0.100
       87.019997       29.344166           0.000               2.498            -167.651              34.432               0.100
       87.660004       29.130833           0.000               1.964            -167.657              29.404               0.100
       87.926666       29.184166           0.000               2.361            -167.652              27.513               0.100
       88.033333       29.184166           0.000               2.672            -167.651              26.679               0.100
       87.980003       29.024166           0.000               3.095            -167.659              26.787               0.100
       84.513336       28.864166           0.000               9.565            -167.695              48.596               0.100
       84.620003       28.864166           0.000               8.874            -167.694              48.019               0.100
       84.779999       28.810833           0.000               7.827            -167.696              47.186               0.100
       85.099998       28.704166           0.000               5.184            -167.699              45.411               0.100
       85.419998       28.810833           0.000               5.810            -167.691              43.787               0.100
       85.686668       28.864166           0.000               3.296            -167.686              42.262               0.100
       86.166664       28.490833           0.000               3.262            -167.701              38.924               0.100
       87.019997       28.490833           0.000              -3.954            -167.694              33.179               0.100
       87.660004       28.704166           0.000              -0.207            -167.678              28.750               0.100
       87.926666       28.864166           0.000               3.585            -167.668              27.000               0.100
       84.779999       28.597500           0.000               3.394            -167.706              47.023               0.100
       85.633331       28.597500           0.000               6.748            -167.700              42.317               0.100
       84.300003       28.544167           0.000               5.448            -167.712              49.200               0.100
       84.406670       28.544167           0.000               4.911            -167.711              48.743               0.100
       84.353333       28.384167           0.000               2.690            -167.719              48.853               0.100
       84.673332       28.277500           0.000              -2.427            -167.723              47.139               0.100
       84.940002       28.437500           0.000              -0.729            -167.713              45.850               0.100
       85.260002       28.437500           0.000              -0.601            -167.711              44.128               0.100
       85.406670       28.477501           0.000               1.571            -167.707              43.420               0.100
       85.446663       28.464167           0.000               1.763            -167.708              43.225               0.100
       85.486664       28.477501           0.000               3.320            -167.707              42.988               0.100
       85.673332       28.477501           0.000              12.698            -167.705              41.980               0.100
       85.713333       28.464167           0.000              10.943            -167.706              41.722               0.100
       87.660004       28.277500           0.000              -6.800            -167.699              28.059               0.100
       85.339996       28.410833           0.000              -0.050            -167.711              43.699               0.100
       85.393333       28.410833           0.000               0.553            -167.711              43.409               0.100
       85.446663       28.410833           0.000               2.758            -167.711              43.108               0.100
       85.486664       28.397499           0.000               5.210            -167.711              42.888               0.100
       84.940002       28.330833           0.000               1.226            -167.718              45.759               0.100
       85.006668       28.370832           0.000              -0.650            -167.716              45.491               0.100
       85.366669       28.330833           0.000               4.985            -167.715              43.455               0.100
       85.473335       28.330833           0.000               6.605            -167.714              42.806               0.100
       85.540001       28.370832           0.000               8.027            -167.712              42.530               0.100
       85.593330       28.344166           0.000              12.630            -167.713              42.223               0.100
       85.019997       28.304167           0.000               2.150            -167.719              45.376               0.100
       85.286667       28.304167           0.000               8.130            -167.717              43.868               0.100
       85.086670       28.290833           0.000               5.729            -167.719              44.934               0.100
       84.353333       28.170834           0.000              -2.496            -167.730              48.568               0.100
       84.940002       28.224167           0.000               6.410            -167.723              45.662               0.100
       85.046669       28.224167           0.000              13.522            -167.722              45.081               0.100
       85.126663       28.250834           0.000              13.281            -167.720              44.757               0.100
       85.260002       28.224167           0.000              27.338            -167.721              43.897               0.100
       85.366669       28.224167           0.000              24.272            -167.720              43.248               0.100
       85.433334       28.264166           0.000              16.682            -167.718              43.023               0.100
       85.166664       28.237499           0.000              14.295            -167.721              44.485               0.100
       85.126663       28.197500           0.000              23.770            -167.723              44.624               0.100
       85.459999       28.210833           0.000              30.547            -167.720              42.821               0.100
       85.593330       28.210833           0.000              33.811            -167.719              42.056               0.100
       85.433334       28.184166           0.000              39.634            -167.722              42.879               0.100
       84.940002       28.117500           0.000              -2.105            -167.728              45.527               0.100
       85.019997       28.144167           0.000              16.945            -167.726              45.152               0.100
       85.086670       28.157499           0.000              30.060            -167.725              44.771               0.100
       85.153336       28.117500           0.000              47.680            -167.727              44.397               0.100
       85.260002       28.117500           0.000              50.096            -167.726              43.742               0.100
       85.326668       28.157499           0.000              45.860            -167.724              43.379               0.100
       85.379997       28.157499           0.000              46.462            -167.723              43.126               0.100
       85.406670       28.157499           0.000              46.887            -167.723              42.952               0.100
       85.353333       28.130833           0.000              57.954            -167.725              43.308               0.100
       85.353333       28.104166           0.000              63.686            -167.726              43.275               0.100
       85.379997       28.104166           0.000              64.920            -167.726              43.144               0.100
       85.326668       28.077499           0.000              58.560            -167.727              43.363               0.100
       85.353333       28.077499           0.000              62.701            -167.727              43.258               0.100
       85.593330       28.077499           0.000              43.906            -167.726              41.875               0.100
       85.646667       28.077499           0.000              37.158            -167.725              41.504               0.100
       85.673332       28.077499           0.000              35.977            -167.725              41.392               0.100
       85.726669       28.077499           0.000              31.518            -167.724              41.032               0.100
       84.459999       27.637501           0.000              -1.693            -167.754              47.487               0.100
       84.940002       28.010834           0.000             -28.118            -167.733              45.336               0.100
       85.046669       28.010834           0.000             -11.838            -167.732              44.820               0.100
       85.139999       28.050833           0.000              41.372            -167.730              44.420               0.100
       85.180000       28.037500           0.000              35.125            -167.730              44.064               0.100
       85.286667       28.037500           0.000              42.160            -167.730              43.489               0.100
       85.366669       28.010834           0.000              20.667            -167.730              43.088               0.100
       85.513336       28.050833           0.000              54.349            -167.727              42.242               0.100
       85.766670       28.037500           0.000              12.468            -167.726              40.711               0.100
       85.806664       28.050833           0.000              15.908            -167.725              40.548               0.100
       86.006668       28.010834           0.000               4.202            -167.725              39.248               0.100
       86.379997       27.850834           0.000              -3.418            -167.730              36.703               0.100
       87.019997       27.637501           0.000              -0.426            -167.735              31.844               0.100
       87.713333       28.010834           0.000              -6.557            -167.712              27.208               0.100
       85.246666       28.024166           0.000              32.133            -167.731              43.754               0.100
       85.433334       28.024166           0.000              47.447            -167.729              42.697               0.100
       85.513336       28.024166           0.000              47.439            -167.729              42.205               0.100
       85.673332       28.024166           0.000              20.709            -167.727              41.309               0.100
       85.699997       28.024166           0.000              16.785            -167.727              41.150               0.100
       85.833336       28.024166           0.000               2.808            -167.726              40.307               0.100
       85.126663       27.984167           0.000             -24.365            -167.733              44.331               0.100
       85.180000       27.984167           0.000             -18.849            -167.733              43.981               0.100
       85.246666       27.997499           0.000               6.627            -167.732              43.688               0.100
       85.286667       27.984167           0.000              -3.992            -167.732              43.442               0.100
       85.433334       27.997499           0.000              30.308            -167.730              42.609               0.100
       85.753334       27.997499           0.000               4.588            -167.728              40.767               0.100
       85.873337       27.984167           0.000             -12.751            -167.728              40.062               0.100
       85.926666       27.984167           0.000              -4.009            -167.727              39.756               0.100
       85.220001       27.970833           0.000             -24.707            -167.733              43.752               0.100
       85.246666       27.970833           0.000             -19.983            -167.733              43.638               0.100
       85.433334       27.970833           0.000              13.693            -167.732              42.563               0.100
       85.486664       27.970833           0.000              19.709            -167.731              42.357               0.100
       85.513336       27.970833           0.000              18.248            -167.731              42.133               0.100
       85.726669       27.970833           0.000               4.873            -167.730              40.911               0.100
       85.833336       27.970833           0.000             -22.958            -167.729              40.217               0.100
       84.940002       27.904167           0.000             -39.739            -167.738              45.249               0.100
       85.046669       27.904167           0.000             -54.909            -167.737              44.651               0.100
       85.153336       27.904167           0.000             -62.485            -167.737              44.042               0.100
       85.260002       27.904167           0.000             -52.836            -167.736              43.436               0.100
       85.366669       27.904167           0.000             -42.836            -167.735              42.854               0.100
       85.473335       27.904167           0.000             -31.168            -167.734              42.278               0.100
       85.540001       27.944166           0.000              11.851            -167.732              41.912               0.100
       85.833336       27.944166           0.000             -32.530            -167.730              40.168               0.100
       85.900002       27.904167           0.000             -28.803            -167.731              39.716               0.100
       86.006668       27.904167           0.000              -1.047            -167.730              39.064               0.100
       87.500000       27.904167           0.000              -4.755            -167.719              28.611               0.100
       85.540001       27.917500           0.000               1.313            -167.733              41.850               0.100
       85.833336       27.917500           0.000             -41.127            -167.731              40.151               0.100
       85.540001       27.890833           0.000             -17.229            -167.735              41.811               0.100
       85.713333       27.877501           0.000             -20.131            -167.734              40.899               0.100
       85.820000       27.877501           0.000             -39.440            -167.733              40.167               0.100
       85.540001       27.864166           0.000             -42.588            -167.736              41.783               0.100
       85.673332       27.864166           0.000             -18.918            -167.735              41.083               0.100
       84.940002       27.797501           0.000             -22.011            -167.743              45.098               0.100
       85.046669       27.797501           0.000             -56.933            -167.742              44.518               0.100
       85.153336       27.797501           0.000             -78.098            -167.742              43.959               0.100
       85.260002       27.797501           0.000             -88.506            -167.741              43.362               0.100
       85.366669       27.797501           0.000             -94.976            -167.740              42.776               0.100
       85.473335       27.797501           0.000             -99.890            -167.739              42.139               0.100
       85.580002       27.797501           0.000             -97.235            -167.739              41.464               0.100
       85.686668       27.797501           0.000             -71.710            -167.738              40.836               0.100
       85.793335       27.797501           0.000             -41.267            -167.737              40.192               0.100
       85.900002       27.797501           0.000             -11.061            -167.736              39.517               0.100
       86.006668       27.797501           0.000               2.162            -167.735              38.922               0.100
       86.113335       27.797501           0.000               3.269            -167.735              38.181               0.100
       87.500000       27.797501           0.000              -2.071            -167.724              28.401               0.100
       84.940002       27.690834           0.000              -6.168            -167.748              45.045               0.100
       85.046669       27.690834           0.000             -22.009            -167.747              44.433               0.100
       85.153336       27.690834           0.000             -39.116            -167.747              43.850               0.100
       85.260002       27.690834           0.000             -56.372            -167.746              43.236               0.100
       85.366669       27.690834           0.000             -76.290            -167.745              42.617               0.100
       85.473335       27.690834           0.000             -92.043            -167.744              41.994               0.100
       85.580002       27.690834           0.000            -102.683            -167.743              41.350               0.100
       85.686668       27.690834           0.000            -102.481            -167.743              40.688               0.100
       85.793335       27.690834           0.000             -79.296            -167.742              40.077               0.100
       85.900002       27.690834           0.000             -45.333            -167.741              39.425               0.100
       86.006668       27.690834           0.000             -15.071            -167.740              38.755               0.100
       86.113335       27.690834           0.000              -4.407            -167.740              38.027               0.100
       87.500000       27.690834           0.000               0.579            -167.729              28.237               0.100
       85.099998       27.424166           0.000              -5.600            -167.760              43.844               0.100
       85.526665       27.424166           0.000             -18.975            -167.757              41.380               0.100
       85.793335       27.584167           0.000             -74.470            -167.747              39.929               0.100
       85.900002       27.584167           0.000             -70.414            -167.746              39.296               0.100
       86.006668       27.584167           0.000             -51.977            -167.745              38.626               0.100
       86.113335       27.584167           0.000             -26.438            -167.745              37.919               0.100
       86.379997       27.424166           0.000              -7.534            -167.750              35.976               0.100
       87.660004       27.424166           0.000               4.709            -167.740              26.362               0.100
       85.793335       27.477501           0.000             -28.849            -167.752              39.793               0.100
       85.900002       27.477501           0.000             -33.618            -167.751              39.161               0.100
       86.006668       27.477501           0.000             -32.659            -167.750              38.468               0.100
       86.113335       27.477501           0.000             -21.359            -167.749              37.722               0.100
       85.846664       27.317499           0.000             -10.371            -167.759              39.267               0.100
       86.059998       27.317499           0.000              -9.924            -167.758              37.911               0.100
       84.086670       27.157499           0.000              -0.413            -167.779              48.863               0.100
       84.193336       27.157499           0.000               0.230            -167.778              48.334               0.100
       84.353333       27.104166           0.000               0.948            -167.779              47.508               0.100
       84.566666       27.104166           0.000               0.081            -167.778              46.398               0.100
       84.779999       27.104166           0.000               0.712            -167.776              45.253               0.100
       85.099998       26.997499           0.000              -1.041            -167.779              43.348               0.100
       85.526665       26.997499           0.000              -2.029            -167.776              40.824               0.100
       86.166664       26.784166           0.000              -3.036            -167.781              36.440               0.100
       87.019997       26.784166           0.000               0.924            -167.774              30.344               0.100
       87.553337       27.104166           0.000               6.280            -167.756              26.711               0.100
       87.553337       26.890833           0.000               5.218            -167.765              26.369               0.100
       87.553337       26.677500           0.000               4.376            -167.775              25.936               0.100
